Time [s];T_cat [gradC];n_h2 [mol/s];n_ch4 [mol/s];n_h2_res [mol/s];m_DE [kg/h];Pel [W]
0;452.8;0.0198;0.00478;0.000149;0.4750909;350
2;452.8;0.0198;0.00478;0.000149;0.4750909;350
4;452.7;0.0198;0.00478;0.000149;0.4750909;350
6;452.7;0.0197;0.00476;0.000149;0;350
8;452.4;0.0196;0.00474;0.000148;0;308
10;451.9;0.0195;0.00472;0.000148;0;308
12;451.3;0.0195;0.0047;0.000147;0;273
14;450.7;0.0194;0.00468;0.000146;0;245
16;450.3;0.0193;0.00465;0.000145;0;231
18;450.1;0.0192;0.00463;0.000145;0;231
20;449.9;0.0191;0.00461;0.000144;0;210
22;449.9;0.019;0.00458;0.000143;0;224
24;449.8;0.0189;0.00456;0.000143;0;217
26;449.8;0.0188;0.00454;0.000142;0;217
28;449.8;0.0187;0.00452;0.000141;0;231
30;449.8;0.0186;0.0045;0.000141;0;210
32;449.7;0.0185;0.00447;0.000140;0;231
34;449.7;0.0184;0.00445;0.000139;0;231
36;449.7;0.0183;0.00443;0.000138;0;238
38;449.7;0.0182;0.00441;0.000138;0;266
40;449.7;0.0182;0.00439;0.000137;0;308
42;449.8;0.0181;0.00436;0.000136;0;308
44;449.8;0.018;0.00434;0.000136;0;350
46;449.7;0.0179;0.00432;0.000135;0;350
48;449.6;0.0178;0.0043;0.000134;0;350
50;449.5;0.0177;0.00427;0.000133;0;350
52;449.4;0.0176;0.00425;0.000133;0;350
54;449.4;0.0175;0.00422;0.000132;0;350
56;449.4;0.0174;0.0042;0.000131;0;350
58;449.4;0.0173;0.00418;0.000131;0;350
60;449.4;0.0172;0.00416;0.000130;0;350
62;449.3;0.0171;0.00413;0.000129;0;350
64;449.1;0.017;0.00411;0.000128;0;350
66;449;0.0169;0.00409;0.000128;0;350
68;448.8;0.0168;0.00407;0.000127;0;350
70;448.5;0.0167;0.00404;0.000126;0;350
72;448.3;0.0166;0.00402;0.000126;0;350
74;448.2;0.0165;0.004;0.000125;0;350
76;448.2;0.0164;0.00397;0.000124;0;350
78;448.1;0.0163;0.00395;0.000123;0;350
80;448;0.0163;0.00393;0.000123;0;350
82;447.8;0.0162;0.0039;0.000122;0;350
84;447.6;0.0161;0.00388;0.000121;0;350
86;447.4;0.016;0.00386;0.000121;0;350
88;447.2;0.0159;0.00383;0.000120;0;350
90;446.9;0.0158;0.00381;0.000119;0;315
92;446.6;0.0157;0.00378;0.000118;0;308
94;446.4;0.0156;0.00376;0.000118;0;273
96;446.2;0.0155;0.00374;0.000117;0;238
98;446.2;0.0154;0.00372;0.000116;0;231
100;446;0.0153;0.00369;0.000115;0;224
102;445.9;0.0152;0.00367;0.000115;0;210
104;445.7;0.0151;0.00364;0.000114;0;224
106;445.5;0.015;0.00362;0.000113;0;217
108;445.2;0.0149;0.0036;0.000113;0;217
110;444.8;0.0148;0.00357;0.000112;0;224
112;444.4;0.0147;0.00355;0.000111;0;210
114;444;0.0146;0.00352;0.000110;0;224
116;443.7;0.0145;0.0035;0.000109;0;224
118;443.5;0.0144;0.00348;0.000109;0;210
120;443.3;0.0143;0.00345;0.000108;0;224
122;443.2;0.0142;0.00343;0.000107;0;217
124;443;0.0141;0.0034;0.000106;0;210
126;442.7;0.014;0.00338;0.000106;0;224
128;442.4;0.0139;0.00336;0.000105;0;210
130;441.9;0.0138;0.00333;0.000104;0;224
132;441.5;0.0137;0.00331;0.000103;0;231
134;441;0.0136;0.00328;0.000103;0;210
136;440.6;0.0135;0.00326;0.000102;0;231
138;440.4;0.0134;0.00323;0.000101;0;231
140;440.2;0.0133;0.00321;0.000100;0;238
142;440.1;0.0132;0.00318;0.000099;0;273
144;439.8;0.0131;0.00316;0.000099;0;308
146;439.5;0.013;0.00313;0.000098;0;315
148;439.1;0.0129;0.00311;0.000097;0;350
150;438.7;0.0128;0.00308;0.000096;0;350
152;438.1;0.0126;0.00306;0.000096;0;350
154;437.5;0.0125;0.00303;0.000095;0;350
156;436.9;0.0124;0.00301;0.000094;0;350
158;436.4;0.0123;0.00298;0.000093;0;350
160;436.1;0.0122;0.00296;0.000093;0;350
162;435.9;0.0121;0.00294;0.000092;0;350
164;435.7;0.012;0.00291;0.000091;0;350
166;435.4;0.0119;0.00288;0.000090;0;350
168;435.1;0.0118;0.00286;0.000089;0;350
170;434.7;0.0117;0.00283;0.000088;0;329
172;434.2;0.0116;0.00281;0.000088;0;315
174;433.6;0.0115;0.00278;0.000087;0;280
176;432.9;0.0114;0.00276;0.000086;0;252
178;432.2;0.0113;0.00273;0.000085;0;238
180;431.6;0.0112;0.00271;0.000085;0;217
182;430.9;0.0111;0.00268;0.000084;0;217
184;430.2;0.011;0.00265;0.000083;0;217
186;429.8;0.0109;0.00263;0.000082;0;210
188;429.5;0.0108;0.0026;0.000081;0;217
190;429.3;0.0107;0.00258;0.000081;0;210
192;429;0.0106;0.00255;0.000080;0;210
194;428.7;0.0104;0.00253;0.000079;0;210
196;428.2;0.0103;0.0025;0.000078;0;210
198;427.7;0.0102;0.00247;0.000077;0;203
200;427;0.0101;0.00245;0.000077;0;203
202;426.3;0.01;0.00242;0.000076;0;210
204;425.6;0.0099;0.0024;0.000075;0;203
206;424.8;0.00979;0.00237;0.000074;0;210
208;423.9;0.00968;0.00234;0.000073;0;203
210;423;0.00956;0.00231;0.000072;0;203
212;422.1;0.00946;0.00229;0.000072;0;210
214;421.4;0.00935;0.00226;0.000071;0;203
216;420.9;0.00923;0.00224;0.000070;0;210
218;420.5;0.00912;0.00221;0.000069;0;203
220;420.1;0.00901;0.00218;0.000068;0;203
222;419.8;0.0089;0.00215;0.000067;0;210
224;419.9;0.00879;0.00213;0.000067;0;203
226;419.9;0.00869;0.0021;0.000066;0;210
228;419.9;0.00857;0.00208;0.000065;0;203
230;419.8;0.00846;0.00205;0.000064;0;210
232;419.7;0.00835;0.00202;0.000063;0;210
234;419.5;0.00825;0.002;0.000063;0;210
236;419.2;0.00812;0.00197;0.000062;0;210
238;419;0.00801;0.00194;0.000061;0;217
240;418.6;0.0079;0.00191;0.000060;0;217
242;418.2;0.00778;0.00189;0.000059;0;210
244;417.8;0.00767;0.00186;0.000058;0;217
246;417.4;0.00756;0.00183;0.000057;0;210
248;416.7;0.00744;0.0018;0.000056;0;217
250;416.3;0.00734;0.00178;0.000056;0;210
252;415.9;0.00722;0.00175;0.000055;0;210
254;415.7;0.0071;0.00172;0.000054;0;217
256;415.6;0.00701;0.0017;0.000053;0;210
258;415.5;0.00701;0.0017;0.000053;0.1536364;217
260;415.3;0.00701;0.0017;0.000053;0.1524545;224
262;415.1;0.00701;0.0017;0.000053;0.1482;210
264;414.9;0.00701;0.0017;0.000053;0.1451273;224
266;414.5;0.00701;0.0017;0.000053;0.1413455;217
268;414.1;0.00701;0.0017;0.000053;0.1347273;217
270;413.7;0.00701;0.0017;0.000053;0.1288182;224
272;413.1;0.00701;0.0017;0.000053;0.1205455;217
274;412.5;0.00701;0.0017;0.000053;0.1148727;224
276;412;0.00701;0.0017;0.000053;0.1073091;231
278;411.3;0.00701;0.0017;0.000053;0.0999818;210
280;410.8;0.00701;0.0017;0.000053;0.0931273;231
282;410.2;0.00701;0.0017;0.000053;0.0860364;224
284;409.6;0.00701;0.0017;0.000053;0.0801273;210
286;409;0.00701;0.0017;0.000053;0.0723273;224
288;408.5;0.00701;0.0017;0.000053;0.0652364;217
290;407.8;0.00701;0.0017;0.000053;0.0702;217
292;407.4;0.00701;0.0017;0.000053;0.0739818;231
294;407.2;0.00701;0.0017;0.000053;0.0777636;210
296;407.2;0.00701;0.0017;0.000053;0.0768182;231
298;407.2;0.00701;0.0017;0.000053;0.0784727;231
300;407.2;0.00701;0.0017;0.000053;0.0761091;210
302;407.2;0.00701;0.0017;0.000053;0.0756364;224
304;407.1;0.00701;0.0017;0.000053;0.0711455;231
306;406.9;0.00701;0.0017;0.000053;0.0678364;210
308;406.7;0.00701;0.0017;0.000053;0.0638182;231
310;406.5;0.00701;0.0017;0.000053;0.0574364;224
312;406.2;0.00701;0.0017;0.000053;0.0527091;224
314;405.8;0.00701;0.0017;0.000053;0.0446727;238
316;405.4;0.00701;0.0017;0.000053;0.0399455;217
318;405;0.00701;0.0017;0.000053;0.0321455;224
320;404.5;0.00701;0.0017;0.000053;0.0262364;238
322;404.1;0.00701;0.0017;0.000053;0.0194527;217
324;403.7;0.00701;0.0017;0.000053;0.01378;231
326;403.2;0.00701;0.0017;0.000053;0.0067364;238
328;402.8;0.00701;0.0017;0.000053;0.0003593;210
330;402.3;0.00701;0.0017;0.000053;0.0087691;231
332;402.1;0.00701;0.0017;0.000053;0.0129291;231
334;402.1;0.00701;0.0017;0.000053;0.0156945;210
336;402.2;0.00701;0.0017;0.000053;0.0186255;231
338;402.3;0.00701;0.0017;0.000053;0.0178927;231
340;402.4;0.00701;0.0017;0.000053;0.0180345;210
342;402.5;0.00701;0.0017;0.000053;0.0147727;231
344;402.5;0.00701;0.0017;0.000053;0.0139218;224
346;402.4;0.00701;0.0017;0.000053;0.00832;210
348;402.3;0.00701;0.0017;0.000053;0.0052;231
350;402.2;0.00701;0.0017;0.000053;0;224
352;401.9;0.00701;0.0017;0.000053;0;224
354;401.6;0.00701;0.0017;0.000053;0;231
356;401.3;0.00701;0.0017;0.000053;0;217
358;401;0.00701;0.0017;0.000053;0;231
360;400.6;0.00701;0.0017;0.000053;0;231
362;400.2;0.00701;0.0017;0.000053;0;210
364;399.8;0.00701;0.0017;0.000053;0;238
366;399.3;0.00701;0.0017;0.000053;0;231
368;399;0.00701;0.0017;0.000053;0;210
370;398.6;0.00701;0.0017;0.000053;0;231
372;398.2;0.00701;0.0017;0.000053;0;224
374;398.1;0.00701;0.0017;0.000053;0;210
376;398.1;0.00701;0.0017;0.000053;0;224
378;398.2;0.00701;0.0017;0.000053;0;210
380;398.3;0.00701;0.0017;0.000053;0;224
382;398.4;0.00701;0.0017;0.000053;0;231
384;398.4;0.00701;0.0017;0.000053;0;210
386;398.4;0.00701;0.0017;0.000053;0;231
388;398.3;0.00701;0.0017;0.000053;0;231
390;398.1;0.00701;0.0017;0.000053;0;210
392;397.8;0.00701;0.0017;0.000053;0;224
394;397.5;0.00701;0.0017;0.000053;0;217
396;397.2;0.00701;0.0017;0.000053;0;210
398;396.8;0.00701;0.0017;0.000053;0;224
400;396.4;0.00701;0.0017;0.000053;0;217
402;396;0.00701;0.0017;0.000053;0;224
404;395.6;0.00701;0.0017;0.000053;0;231
406;395.1;0.00701;0.0017;0.000053;0;210
408;394.6;0.00701;0.0017;0.000053;0;231
410;394.2;0.00701;0.0017;0.000053;0;224
412;393.8;0.00701;0.0017;0.000053;0;210
414;393.6;0.00701;0.0017;0.000053;0;217
416;393.6;0.00701;0.0017;0.000053;0;210
418;393.7;0.00701;0.0017;0.000053;0;210
420;393.8;0.00701;0.0017;0.000053;0;217
422;393.8;0.00701;0.0017;0.000053;0;210
424;393.8;0.00701;0.0017;0.000053;0;224
426;393.8;0.00701;0.0017;0.000053;0;224
428;393.7;0.00701;0.0017;0.000053;0;210
430;393.5;0.00701;0.0017;0.000053;0;224
432;393.3;0.00701;0.0017;0.000053;0;217
434;393;0.00701;0.0017;0.000053;0;217
436;392.8;0.00701;0.0017;0.000053;0;224
438;392.4;0.00701;0.0017;0.000053;0;210
440;392.1;0.00701;0.0017;0.000053;0;224
442;391.7;0.00701;0.0017;0.000053;0;224
444;391.3;0.00701;0.0017;0.000053;0;210
446;391;0.00701;0.0017;0.000053;0;224
448;390.6;0.00701;0.0017;0.000053;0;217
450;390.3;0.00701;0.0017;0.000053;0;217
452;390;0.00701;0.0017;0.000053;0;224
454;389.8;0.00701;0.0017;0.000053;0;210
456;389.9;0.00701;0.0017;0.000053;0;217
458;390;0.00701;0.0017;0.000053;0;217
460;390.2;0.00701;0.0017;0.000053;0;210
462;390.4;0.00701;0.0017;0.000053;0;217
464;390.5;0.00701;0.0017;0.000053;0;210
466;390.6;0.00701;0.0017;0.000053;0;217
468;390.6;0.00701;0.0017;0.000053;0;217
470;390.6;0.00701;0.0017;0.000053;0;210
472;390.5;0.00701;0.0017;0.000053;0;217
474;390.4;0.00701;0.0017;0.000053;0;217
476;390.2;0.00701;0.0017;0.000053;0;217
478;389.9;0.00701;0.0017;0.000053;0;217
480;389.7;0.00701;0.0017;0.000053;0;210
482;389.4;0.00701;0.0017;0.000053;0;217
484;389.1;0.00701;0.0017;0.000053;0;217
486;388.8;0.00701;0.0017;0.000053;0;210
488;388.5;0.00701;0.0017;0.000053;0;217
490;388.2;0.00701;0.0017;0.000053;0;210
492;387.9;0.00701;0.0017;0.000053;0;217
494;387.6;0.00701;0.0017;0.000053;0;217
496;387.6;0.00701;0.0017;0.000053;0;210
498;387.8;0.00701;0.0017;0.000053;0;217
500;388;0.00701;0.0017;0.000053;0;217
502;388.2;0.00701;0.0017;0.000053;0;210
504;388.4;0.00701;0.0017;0.000053;0;210
506;388.5;0.00701;0.0017;0.000053;0;210
508;388.6;0.00701;0.0017;0.000053;0;217
510;388.6;0.00701;0.0017;0.000053;0;210
512;388.5;0.00701;0.0017;0.000053;0;210
514;388.4;0.00701;0.0017;0.000053;0;217
516;388.2;0.00701;0.0017;0.000053;0;210
518;388;0.00701;0.0017;0.000053;0;210
520;387.7;0.00701;0.0017;0.000053;0;217
522;387.4;0.00701;0.0017;0.000053;0;210
524;387;0.00701;0.0017;0.000053;0;210
526;386.7;0.00701;0.0017;0.000053;0;210
528;386.4;0.00701;0.0017;0.000053;0;217
530;386.1;0.00701;0.0017;0.000053;0;210
532;385.8;0.00701;0.0017;0.000053;0;210
534;385.4;0.00701;0.0017;0.000053;0;217
536;385.2;0.00701;0.0017;0.000053;0;210
538;385.2;0.00701;0.0017;0.000053;0;210
540;385.4;0.00701;0.0017;0.000053;0;217
542;385.5;0.00701;0.0017;0.000053;0;210
544;385.7;0.00701;0.0017;0.000053;0;210
546;385.8;0.00701;0.0017;0.000053;0;210
548;385.8;0.00701;0.0017;0.000053;0;210
550;385.8;0.00701;0.0017;0.000053;0;210
552;385.8;0.00701;0.0017;0.000053;0;210
554;385.7;0.00701;0.0017;0.000053;0;210
556;385.5;0.00701;0.0017;0.000053;0;217
558;385.3;0.00701;0.0017;0.000053;0;210
560;385;0.00701;0.0017;0.000053;0;210
562;384.8;0.00701;0.0017;0.000053;0;210
564;384.5;0.00701;0.0017;0.000053;0;217
566;384.3;0.00701;0.0017;0.000053;0;210
568;384;0.00701;0.0017;0.000053;0;210
570;383.7;0.00701;0.0017;0.000053;0;217
572;383.4;0.00701;0.0017;0.000053;0;210
574;383.1;0.00701;0.0017;0.000053;0;210
576;383;0.00701;0.0017;0.000053;0;210
578;383.1;0.00701;0.0017;0.000053;0;210
580;383.4;0.00701;0.0017;0.000053;0;210
582;383.6;0.00701;0.0017;0.000053;0;210
584;383.7;0.00701;0.0017;0.000053;0;210
586;383.9;0.00701;0.0017;0.000053;0;210
588;384;0.00701;0.0017;0.000053;0;210
590;384.1;0.00701;0.0017;0.000053;0;210
592;384.1;0.00701;0.0017;0.000053;0;210
594;384;0.00701;0.0017;0.000053;0;210
596;383.9;0.00701;0.0017;0.000053;0;217
598;383.7;0.00701;0.0017;0.000053;0;210
600;383.6;0.00701;0.0017;0.000053;0;210
602;383.3;0.00701;0.0017;0.000053;0;217
604;383.1;0.00701;0.0017;0.000053;0;217
606;382.8;0.00701;0.0017;0.000053;0;210
608;382.6;0.00701;0.0017;0.000053;0;210
610;382.4;0.00701;0.0017;0.000053;0;217
612;382.2;0.00701;0.0017;0.000053;0;210
614;381.9;0.00701;0.0017;0.000053;0;210
616;381.8;0.00701;0.0017;0.000053;0;210
618;381.9;0.00701;0.0017;0.000053;0;210
620;382.1;0.00701;0.0017;0.000053;0;210
622;382.3;0.00701;0.0017;0.000053;0;210
624;382.5;0.00701;0.0017;0.000053;0;210
626;382.7;0.00701;0.0017;0.000053;0;210
628;382.9;0.00701;0.0017;0.000053;0;210
630;383;0.00701;0.0017;0.000053;0;210
632;383;0.00701;0.0017;0.000053;0;210
634;383;0.00701;0.0017;0.000053;0;210
636;383;0.00701;0.0017;0.000053;0;217
638;382.9;0.00701;0.0017;0.000053;0;210
640;382.7;0.00701;0.0017;0.000053;0;210
642;382.6;0.00701;0.0017;0.000053;0;210
644;382.4;0.00701;0.0017;0.000053;0;210
646;382.2;0.00701;0.0017;0.000053;0;210
648;382;0.00701;0.0017;0.000053;0;210
650;381.8;0.00701;0.0017;0.000053;0;210
652;381.6;0.00701;0.0017;0.000053;0;217
654;381.5;0.00701;0.0017;0.000053;0;210
656;381.6;0.00701;0.0017;0.000053;0;210
658;381.8;0.00701;0.0017;0.000053;0;210
660;382;0.00701;0.0017;0.000053;0;210
662;382.2;0.00701;0.0017;0.000053;0;210
664;382.4;0.00701;0.0017;0.000053;0;210
666;382.6;0.00701;0.0017;0.000053;0;210
668;382.7;0.00701;0.0017;0.000053;0;210
670;382.8;0.00701;0.0017;0.000053;0;210
672;382.8;0.00701;0.0017;0.000053;0;210
674;382.7;0.00701;0.0017;0.000053;0;210
676;382.7;0.00701;0.0017;0.000053;0;210
678;382.5;0.00701;0.0017;0.000053;0;217
680;382.4;0.00701;0.0017;0.000053;0;217
682;382.3;0.00701;0.0017;0.000053;0;210
684;382.1;0.00701;0.0017;0.000053;0;210
686;381.9;0.00701;0.0017;0.000053;0;210
688;381.8;0.00701;0.0017;0.000053;0;210
690;381.6;0.00701;0.0017;0.000053;0;210
692;381.5;0.00701;0.0017;0.000053;0;210
694;381.6;0.00701;0.0017;0.000053;0;210
696;381.8;0.00701;0.0017;0.000053;0;210
698;382;0.00701;0.0017;0.000053;0;210
700;382.3;0.00701;0.0017;0.000053;0;210
702;382.4;0.00701;0.0017;0.000053;0;210
704;382.6;0.00701;0.0017;0.000053;0;210
706;382.8;0.00701;0.0017;0.000053;0;210
708;382.8;0.00701;0.0017;0.000053;0;210
710;382.8;0.00701;0.0017;0.000053;0;210
712;382.8;0.00701;0.0017;0.000053;0;210
714;382.7;0.00701;0.0017;0.000053;0;210
716;382.6;0.00701;0.0017;0.000053;0;210
718;382.5;0.00701;0.0017;0.000053;0;210
720;382.3;0.00701;0.0017;0.000053;0;210
722;382.2;0.00701;0.0017;0.000053;0;210
724;382;0.00701;0.0017;0.000053;0;210
726;381.8;0.00701;0.0017;0.000053;0;210
728;381.6;0.00701;0.0017;0.000053;0;203
730;381.4;0.00701;0.0017;0.000053;0;210
732;381.3;0.00701;0.0017;0.000053;0;210
734;381.4;0.00701;0.0017;0.000053;0;210
736;381.7;0.00701;0.0017;0.000053;0;210
738;381.9;0.00701;0.0017;0.000053;0;210
740;382.2;0.00701;0.0017;0.000053;0;210
742;382.4;0.00701;0.0017;0.000053;0;203
744;382.6;0.00701;0.0017;0.000053;0;210
746;382.7;0.00701;0.0017;0.000053;0;210
748;382.8;0.00701;0.0017;0.000053;0;210
750;382.8;0.00701;0.0017;0.000053;0;210
752;382.8;0.00701;0.0017;0.000053;0;210
754;382.7;0.00701;0.0017;0.000053;0;210
756;382.6;0.00701;0.0017;0.000053;0;203
758;382.4;0.00701;0.0017;0.000053;0;203
760;382.3;0.00701;0.0017;0.000053;0;210
762;382.1;0.00701;0.0017;0.000053;0;203
764;381.9;0.00701;0.0017;0.000053;0;210
766;381.7;0.00701;0.0017;0.000053;0;210
768;381.5;0.00701;0.0017;0.000053;0;210
770;381.3;0.00701;0.0017;0.000053;0;210
772;381.1;0.00701;0.0017;0.000053;0;210
774;381.3;0.00701;0.0017;0.000053;0;210
776;381.5;0.00701;0.0017;0.000053;0;203
778;381.8;0.00701;0.0017;0.000053;0;203
780;382;0.00701;0.0017;0.000053;0;210
782;382.3;0.00701;0.0017;0.000053;0;203
784;382.5;0.00701;0.0017;0.000053;0;210
786;382.6;0.00701;0.0017;0.000053;0;203
788;382.7;0.00701;0.0017;0.000053;0;203
790;382.7;0.00701;0.0017;0.000053;0;210
792;382.7;0.00701;0.0017;0.000053;0;210
794;382.7;0.00701;0.0017;0.000053;0;210
796;382.6;0.00701;0.0017;0.000053;0;210
798;382.4;0.00701;0.0017;0.000053;0;210
800;382.3;0.00701;0.0017;0.000053;0;210
802;382.1;0.00701;0.0017;0.000053;0;203
804;381.9;0.00701;0.0017;0.000053;0;210
806;381.8;0.00701;0.0017;0.000053;0;203
808;381.6;0.00701;0.0017;0.000053;0;210
810;381.4;0.00701;0.0017;0.000053;0;210
812;381.1;0.00701;0.0017;0.000053;0;210
814;381.1;0.00701;0.0017;0.000053;0;210
816;381.3;0.00701;0.0017;0.000053;0;210
818;381.5;0.00701;0.0017;0.000053;0;210
820;381.8;0.00701;0.0017;0.000053;0;203
822;382.1;0.00701;0.0017;0.000053;0;203
824;382.3;0.00701;0.0017;0.000053;0;210
826;382.5;0.00701;0.0017;0.000053;0;210
828;382.6;0.00701;0.0017;0.000053;0;210
830;382.7;0.00701;0.0017;0.000053;0;210
832;382.7;0.00701;0.0017;0.000053;0;210
834;382.7;0.00701;0.0017;0.000053;0;210
836;382.6;0.00701;0.0017;0.000053;0;203
838;382.5;0.00701;0.0017;0.000053;0;210
840;382.4;0.00701;0.0017;0.000053;0;210
842;382.2;0.00701;0.0017;0.000053;0;210
844;382.1;0.00701;0.0017;0.000053;0;210
846;381.9;0.00701;0.0017;0.000053;0;210
848;381.7;0.00701;0.0017;0.000053;0;210
850;381.5;0.00701;0.0017;0.000053;0;203
852;381.2;0.00701;0.0017;0.000053;0;203
854;381;0.00701;0.0017;0.000053;0;210
856;381;0.00701;0.0017;0.000053;0;203
858;381.3;0.00701;0.0017;0.000053;0;210
860;381.5;0.00701;0.0017;0.000053;0;210
862;381.7;0.00701;0.0017;0.000053;0;210
864;382;0.00701;0.0017;0.000053;0;210
866;382.2;0.00701;0.0017;0.000053;0;210
868;382.3;0.00701;0.0017;0.000053;0;210
870;382.5;0.00701;0.0017;0.000053;0;203
872;382.5;0.00701;0.0017;0.000053;0;203
874;382.5;0.00701;0.0017;0.000053;0;210
876;382.5;0.00701;0.0017;0.000053;0;203
878;382.4;0.00701;0.0017;0.000053;0;210
880;382.3;0.00701;0.0017;0.000053;0;203
882;382.1;0.00701;0.0017;0.000053;0;203
884;382;0.00701;0.0017;0.000053;0;210
886;381.7;0.00701;0.0017;0.000053;0;203
888;381.6;0.00701;0.0017;0.000053;0;210
890;381.4;0.00701;0.0017;0.000053;0;203
892;381.1;0.00701;0.0017;0.000053;0;203
894;380.9;0.00701;0.0017;0.000053;0;210
896;380.8;0.00701;0.0017;0.000053;0;196
898;380.9;0.00701;0.0017;0.000053;0;210
900;381.1;0.00701;0.0017;0.000053;0;196
902;381.5;0.00706;0.00171;0.000053;0;203
904;381.7;0.00713;0.00173;0.000054;0;196
906;382;0.0072;0.00174;0.000054;0;203
908;382.4;0.00727;0.00176;0.000055;0;210
910;382.7;0.00734;0.00178;0.000056;0;203
912;382.9;0.0074;0.00179;0.000056;0;210
914;382.9;0.00748;0.00181;0.000057;0;203
916;382.9;0.00754;0.00183;0.000057;0;196
918;382.9;0.00761;0.00184;0.000058;0;203
920;382.8;0.00768;0.00186;0.000058;0;196
922;382.7;0.00775;0.00188;0.000059;0;210
924;382.6;0.00782;0.00189;0.000059;0;196
926;382.5;0.00788;0.00191;0.000060;0;210
928;382.4;0.00795;0.00193;0.000060;0;203
930;382.4;0.00802;0.00194;0.000061;0;203
932;382.3;0.00809;0.00196;0.000061;0;210
934;382.3;0.00815;0.00197;0.000062;0;203
936;382.5;0.00822;0.00199;0.000062;0;210
938;382.8;0.00829;0.00201;0.000063;0;196
940;383.3;0.00836;0.00203;0.000063;0;196
942;383.7;0.00843;0.00204;0.000064;0;210
944;384.2;0.00849;0.00206;0.000064;0;196
946;384.5;0.00856;0.00207;0.000065;0;210
948;384.9;0.00862;0.00209;0.000065;0;203
950;385.2;0.0087;0.00211;0.000066;0;203
952;385.6;0.00876;0.00212;0.000066;0;210
954;385.9;0.00883;0.00214;0.000067;0;203
956;386.2;0.00889;0.00215;0.000067;0;210
958;386.4;0.00896;0.00217;0.000068;0;203
960;386.7;0.00903;0.00219;0.000068;0;210
962;387;0.00909;0.0022;0.000069;0;203
964;387.4;0.00916;0.00222;0.000069;0;203
966;387.5;0.00923;0.00223;0.000070;0;210
968;388;0.00929;0.00225;0.000070;0;203
970;388.4;0.00935;0.00226;0.000071;0;210
972;389;0.00942;0.00228;0.000071;0;203
974;389.6;0.00949;0.0023;0.000072;0;203
976;390.2;0.00955;0.00231;0.000072;0;210
978;390.8;0.00962;0.00233;0.000073;0;203
980;391.4;0.00968;0.00234;0.000073;0;210
982;391.9;0.00975;0.00236;0.000074;0;203
984;392.3;0.00982;0.00238;0.000074;0;210
986;392.7;0.00989;0.00239;0.000075;0;210
988;393.1;0.00995;0.00241;0.000075;0;210
990;393.5;0.01;0.00242;0.000076;0;210
992;393.8;0.0101;0.00244;0.000076;0;210
994;394.1;0.0101;0.00246;0.000077;0;210
996;394.4;0.0102;0.00247;0.000077;0;210
998;394.5;0.0103;0.00249;0.000078;0;210
1000;394.6;0.0103;0.0025;0.000078;0;210
1002;395;0.0104;0.00252;0.000079;0;210
1004;395.4;0.0105;0.00253;0.000079;0;210
1006;395.9;0.0105;0.00255;0.000080;0;210
1008;396.3;0.0106;0.00256;0.000080;0.0019595;210
1010;396.8;0.0107;0.00258;0.000081;0.0019122;210
1012;397.3;0.0107;0.0026;0.000081;0;217
1014;397.7;0.0108;0.00261;0.000082;0.001664;217
1016;398.2;0.0109;0.00263;0.000082;0;210
1018;398.5;0.0109;0.00264;0.000083;0;217
1020;398.9;0.011;0.00266;0.000083;0;210
1022;399.3;0.011;0.00267;0.000083;0;217
1024;399.7;0.0111;0.00269;0.000084;0;217
1026;400.2;0.0112;0.0027;0.000084;0;210
1028;400.5;0.0112;0.00272;0.000085;0;224
1030;400.7;0.0113;0.00273;0.000085;0.0013993;224
1032;400.7;0.0114;0.00275;0.000086;0.0119127;210
1034;401;0.0114;0.00277;0.000087;0.0236364;224
1036;401.3;0.0115;0.00278;0.000087;0.0283636;217
1038;401.8;0.0116;0.0028;0.000088;0.0333273;217
1040;402.3;0.0116;0.00281;0.000088;0.0335636;224
1042;402.8;0.0117;0.00283;0.000088;0.0304909;210
1044;403.3;0.0117;0.00284;0.000089;0.0312;224
1046;403.7;0.0118;0.00286;0.000089;0.0257636;224
1048;404.2;0.0119;0.00287;0.000090;0.02184;210
1050;404.5;0.0119;0.00288;0.000090;0.0189091;224
1052;404.9;0.012;0.0029;0.000091;0.0110382;224
1054;405.3;0.0121;0.00292;0.000091;0.0080127;217
1056;405.7;0.0121;0.00293;0.000092;0.0014442;231
1058;405.7;0.0122;0.00295;0.000092;0.0142527;210
1060;405.8;0.0122;0.00296;0.000093;0.0228327;231
1062;406;0.0123;0.00298;0.000093;0.0264727;224
1064;406.3;0.0124;0.00299;0.000093;0.0338;210
1066;406.7;0.0124;0.00301;0.000094;0.0314364;231
1068;407.2;0.0125;0.00302;0.000094;0.0328545;231
1070;407.7;0.0126;0.00304;0.000095;0.0309636;210
1072;408.2;0.0126;0.00305;0.000095;0.0243455;238
1074;408.6;0.0127;0.00307;0.000096;0.0250545;231
1076;409;0.0127;0.00308;0.000096;0.0191218;210
1078;409.7;0.0128;0.0031;0.000097;0.0210364;238
1080;410.4;0.0129;0.00311;0.000097;0.0214618;231
1082;411.1;0.0129;0.00313;0.000098;0.0295455;217
1084;412.1;0.013;0.00314;0.000098;0.0494;245
1086;413.2;0.0131;0.00316;0.000099;0.0612182;266
1088;414.3;0.0131;0.00317;0.000099;0.0735091;280
1090;415.2;0.0132;0.00319;0.000100;0.0801273;315
1092;416.1;0.0132;0.0032;0.000100;0.0810727;336
1094;417;0.0133;0.00321;0.000100;0.0850909;350
1096;417.7;0.0134;0.00323;0.000101;0.0867455;350
1098;418.6;0.0134;0.00325;0.000102;0.0907636;350
1100;419.3;0.0135;0.00326;0.000102;0.0919455;350
1102;420;0.0135;0.00327;0.000102;0.0905273;350
1104;420.7;0.0136;0.00329;0.000103;0.0952545;350
1106;421.6;0.0137;0.0033;0.000103;0.1127455;343
1108;422.6;0.0137;0.00332;0.000104;0.1285818;315
1110;423.6;0.0138;0.00333;0.000104;0.1427636;273
1112;424.6;0.0138;0.00335;0.000105;0.1479636;266
1114;425.6;0.0139;0.00336;0.000105;0.1552909;238
1116;426.3;0.014;0.00338;0.000106;0.1552909;210
1118;427.1;0.014;0.00339;0.000106;0.1576545;231
1120;427.8;0.0141;0.00341;0.000107;0.1595455;231
1122;428.4;0.0141;0.00342;0.000107;0.1597818;210
1124;429.1;0.0142;0.00344;0.000108;0.1628545;217
1126;429.8;0.0143;0.00345;0.000108;0.1727818;217
1128;430.7;0.0143;0.00346;0.000108;0.1905091;210
1130;431.7;0.0144;0.00348;0.000109;0.2068182;210
1132;432.7;0.0144;0.00349;0.000109;0.2153273;210
1134;433.6;0.0145;0.00351;0.000110;0.2233636;210
1136;434.4;0.0146;0.00352;0.000110;0.2252545;210
1138;435.1;0.0146;0.00354;0.000111;0.2276182;210
1140;435.8;0.0147;0.00355;0.000111;0.2306909;210
1142;436.5;0.0147;0.00356;0.000111;0.2290364;210
1144;437.1;0.0148;0.00358;0.000112;0.2318727;210
1146;437.6;0.0149;0.00359;0.000112;0.2332909;210
1148;438.4;0.0149;0.00361;0.000113;0.2505455;210
1150;439.3;0.015;0.00362;0.000113;0.2647273;210
1152;440.2;0.015;0.00364;0.000114;0.2718182;210
1154;441;0.0151;0.00365;0.000114;0.2789091;217
1156;441.8;0.0152;0.00367;0.000115;0.2836364;217
1158;442.5;0.0152;0.00368;0.000115;0.2883636;210
1160;443.2;0.0153;0.00369;0.000115;0.2954545;224
1162;443.9;0.0153;0.00371;0.000116;0.2978182;210
1164;444.7;0.0154;0.00372;0.000116;0.3025455;217
1166;445.4;0.0155;0.00374;0.000117;0.3072727;231
1168;446;0.0155;0.00375;0.000117;0.312;210
1170;446.7;0.0156;0.00376;0.000118;0.3309091;231
1172;447.7;0.0156;0.00378;0.000118;0.3427273;266
1174;448.5;0.0157;0.00379;0.000118;0.3521818;273
1176;449.4;0.0158;0.00381;0.000119;0.3592727;301
1178;450.1;0.0158;0.00382;0.000119;0.3616364;343
1180;450.9;0.0159;0.00384;0.000120;0.3687273;343
1182;451.5;0.0159;0.00385;0.000120;0.3710909;350
1184;452.1;0.016;0.00386;0.000121;0.3734545;350
1186;452.7;0.016;0.00388;0.000121;0.3781818;350
1188;453.4;0.0161;0.00389;0.000122;0.3876364;350
1190;454.2;0.0162;0.00391;0.000122;0.4065455;350
1192;455;0.0162;0.00392;0.000123;0.4112727;350
1194;455.7;0.0163;0.00393;0.000123;0.4207273;350
1196;456.4;0.0163;0.00395;0.000123;0.4301818;350
1198;457.1;0.0164;0.00396;0.000124;0.4325455;350
1200;457.8;0.0165;0.00398;0.000124;0.4396364;350
1202;458.4;0.0165;0.00399;0.000125;0.442;350
1204;459;0.0166;0.004;0.000125;0.4490909;350
1206;459.6;0.0166;0.00402;0.000126;0.4538182;350
1208;460.1;0.0167;0.00403;0.000126;0.4561818;350
1210;460.7;0.0167;0.00404;0.000126;0.4703636;350
1212;461.5;0.0168;0.00406;0.000127;0.4821818;350
1214;462.2;0.0169;0.00407;0.000127;0.4916364;315
1216;463;0.0169;0.00409;0.000128;0.4987273;280
1218;463.6;0.017;0.0041;0.000128;0.5010909;280
1220;464.2;0.017;0.00412;0.000129;0.5105455;238
1222;464.7;0.0171;0.00413;0.000129;0.5129091;210
1224;465.3;0.0171;0.00414;0.000129;0.5152727;231
1226;465.8;0.0172;0.00415;0.000130;0.5223636;231
1228;466.3;0.0173;0.00417;0.000130;0.5294545;210
1230;467.1;0.0173;0.00418;0.000131;0.5483636;231
1232;467.6;0.0174;0.0042;0.000131;0.5530909;224
1234;468.2;0.0174;0.00421;0.000132;0.5601818;217
1236;468.8;0.0175;0.00422;0.000132;0.5672727;224
1238;469.5;0.0175;0.00424;0.000133;0.572;210
1240;470;0.0176;0.00425;0.000133;0.5790909;224
1242;470.5;0.0177;0.00426;0.000133;0.5838182;231
1244;471.1;0.0177;0.00428;0.000134;0.5885455;224
1246;471.6;0.0178;0.00429;0.000134;0.5956364;252
1248;472;0.0178;0.00431;0.000135;0.598;294
1250;472.5;0.0179;0.00432;0.000135;0.6050909;294
1252;473;0.0179;0.00433;0.000135;0.6145455;329
1254;473.6;0.018;0.00435;0.000136;0.624;350
1256;474;0.0181;0.00436;0.000136;0.6334545;350
1258;474.6;0.0181;0.00437;0.000137;0.6405455;350
1260;475.2;0.0182;0.00439;0.000137;0.6523636;350
1262;475.7;0.0182;0.0044;0.000138;0.6570909;350
1264;476.2;0.0183;0.00441;0.000138;0.6594545;350
1266;476.6;0.0183;0.00443;0.000138;0.6665455;350
1268;477;0.0184;0.00444;0.000139;0.6665455;350
1270;477.4;0.0184;0.00445;0.000139;0.6712727;350
1272;477.8;0.0185;0.00447;0.000140;0.6783636;350
1274;478.2;0.0186;0.00448;0.000140;0.6901818;350
1276;478.6;0.0186;0.00449;0.000140;0.702;350
1278;479.2;0.0187;0.00451;0.000141;0.7067273;350
1280;479.6;0.0187;0.00452;0.000141;0.7114545;350
1282;480;0.0188;0.00453;0.000142;0.7161818;350
1284;480.4;0.0188;0.00455;0.000142;0.7209091;350
1286;480.7;0.0189;0.00456;0.000143;0.7256364;350
1288;481;0.0189;0.00457;0.000143;0.728;350
1290;481.4;0.019;0.00459;0.000143;0.7350909;350
1292;481.8;0.0191;0.0046;0.000144;0.7398182;350
1294;482.1;0.0191;0.00461;0.000144;0.7445455;350
1296;482.4;0.0192;0.00463;0.000145;0.7563636;350
1298;482.8;0.0192;0.00464;0.000145;0.7610909;350
1300;483.2;0.0193;0.00466;0.000146;0.7729091;350
1302;483.6;0.0193;0.00467;0.000146;0.78;350
1304;484;0.0194;0.00468;0.000146;0.7823636;350
1306;484.3;0.0194;0.00469;0.000147;0.7894545;350
1308;484.6;0.0195;0.00471;0.000147;0.7918182;350
1310;484.9;0.0196;0.00472;0.000148;0.7965455;350
1312;485.1;0.0196;0.00473;0.000148;0.7989091;350
1314;485.4;0.0197;0.00475;0.000148;0.8012727;350
1316;485.6;0.0197;0.00476;0.000149;0.8130909;350
1318;485.9;0.0198;0.00477;0.000149;0.8201818;350
1320;486.2;0.0198;0.00478;0.000149;0.4136364;350
1322;486.5;0.0198;0.00478;0.000149;0.416;350
1324;486.7;0.0198;0.00478;0.000149;0.416;350
1326;486.9;0.0198;0.00478;0.000149;0.416;350
1328;487.1;0.0198;0.00478;0.000149;0.416;350
1330;487.3;0.0198;0.00478;0.000149;0.4207273;350
1332;487.5;0.0198;0.00478;0.000149;0.4254545;350
1334;487.7;0.0198;0.00478;0.000149;0.4254545;350
1336;487.9;0.0198;0.00478;0.000149;0.4278182;350
1338;488;0.0198;0.00478;0.000149;0.4301818;350
1340;488.1;0.0198;0.00478;0.000149;0.4301818;350
1342;488.2;0.0198;0.00478;0.000149;0.4325455;350
1344;488.4;0.0198;0.00478;0.000149;0.4325455;350
1346;488.5;0.0198;0.00478;0.000149;0.4349091;350
1348;488.6;0.0198;0.00478;0.000149;0.4396364;350
1350;488.7;0.0198;0.00478;0.000149;0.442;350
1352;488.9;0.0198;0.00478;0.000149;0.4443636;350
1354;489;0.0198;0.00478;0.000149;0.4467273;350
1356;489;0.0198;0.00478;0.000149;0.4490909;350
1358;489.2;0.0198;0.00478;0.000149;0.4490909;350
1360;489.3;0.0198;0.00478;0.000149;0.4490909;350
1362;489.3;0.0198;0.00478;0.000149;0.4467273;350
1364;489.1;0.0198;0.00478;0.000149;0.4490909;350
1366;489.1;0.0198;0.00478;0.000149;0.4538182;350
1368;489;0.0198;0.00478;0.000149;0.4538182;350
1370;489;0.0198;0.00478;0.000149;0.4538182;350
1372;489;0.0198;0.00478;0.000149;0.4538182;350
1374;488.9;0.0198;0.00478;0.000149;0.4538182;350
1376;488.9;0.0198;0.00478;0.000149;0.4538182;350
1378;488.8;0.0198;0.00478;0.000149;0.4561818;350
1380;488.6;0.0198;0.00478;0.000149;0.4585455;350
1382;488.5;0.0198;0.00478;0.000149;0.4609091;350
1384;488.4;0.0198;0.00478;0.000149;0.4585455;350
1386;488.2;0.0198;0.00478;0.000149;0.4585455;350
1388;488.1;0.0198;0.00478;0.000149;0.4561818;350
1390;487.9;0.0198;0.00478;0.000149;0.4585455;350
1392;487.6;0.0198;0.00478;0.000149;0.4609091;350
1394;487.3;0.0198;0.00478;0.000149;0.4609091;350
1396;487.1;0.0198;0.00478;0.000149;0.4632727;350
1398;486.8;0.0198;0.00478;0.000149;0.4609091;350
1400;486.5;0.0198;0.00478;0.000149;0.4585455;350
1402;486.2;0.0198;0.00478;0.000149;0.4585455;350
1404;485.9;0.0198;0.00478;0.000149;0.4561818;350
1406;485.4;0.0198;0.00478;0.000149;0.4561818;350
1408;484.9;0.0198;0.00478;0.000149;0.4561818;350
1410;484.6;0.0198;0.00478;0.000149;0.4561818;350
1412;484.3;0.0198;0.00478;0.000149;0.4585455;350
1414;484;0.0198;0.00478;0.000149;0.4561818;350
1416;483.7;0.0198;0.00478;0.000149;0.4561818;350
1418;483.4;0.0198;0.00478;0.000149;0.4538182;350
1420;483;0.0198;0.00478;0.000149;0.4514545;350
1422;482.7;0.0198;0.00478;0.000149;0.4538182;350
1424;482.3;0.0198;0.00478;0.000149;0.4514545;350
1426;482;0.0198;0.00478;0.000149;0.4514545;350
1428;481.7;0.0198;0.00478;0.000149;0.4490909;350
1430;481.4;0.0198;0.00478;0.000149;0.4490909;350
1432;481;0.0198;0.00478;0.000149;0.4490909;350
1434;480.7;0.0198;0.00478;0.000149;0.4490909;350
1436;480.4;0.0198;0.00478;0.000149;0.4490909;350
1438;480.1;0.0198;0.00478;0.000149;0.4467273;350
1440;479.8;0.0198;0.00478;0.000149;0.4467273;350
1442;479.5;0.0198;0.00478;0.000149;0.4490909;350
1444;479.2;0.0198;0.00478;0.000149;0.4467273;350
1446;478.8;0.0198;0.00478;0.000149;0.4467273;350
1448;478.5;0.0198;0.00478;0.000149;0.4467273;350
1450;478.2;0.0198;0.00478;0.000149;0.4443636;350
1452;477.9;0.0198;0.00478;0.000149;0.4467273;350
1454;477.6;0.0198;0.00478;0.000149;0.4443636;350
1456;477.2;0.0198;0.00478;0.000149;0.4443636;350
1458;476.9;0.0198;0.00478;0.000149;0.4396364;350
1460;476.6;0.0198;0.00478;0.000149;0.4372727;350
1462;476.2;0.0198;0.00478;0.000149;0.4372727;350
1464;475.9;0.0198;0.00478;0.000149;0.4372727;350
1466;475.6;0.0198;0.00478;0.000149;0.4396364;350
1468;475.3;0.0198;0.00478;0.000149;0.4396364;350
1470;475.1;0.0198;0.00478;0.000149;0.4372727;350
1472;474.8;0.0198;0.00478;0.000149;0.4372727;350
1474;474.5;0.0198;0.00478;0.000149;0.4325455;350
1476;474.2;0.0198;0.00478;0.000149;0.4325455;350
1478;473.9;0.0198;0.00478;0.000149;0.4349091;350
1480;473.7;0.0198;0.00478;0.000149;0.4349091;350
1482;473.4;0.0198;0.00478;0.000149;0.4372727;350
1484;473.3;0.0198;0.00478;0.000149;0.4349091;350
1486;473;0.0198;0.00478;0.000149;0.4349091;350
1488;472.8;0.0198;0.00478;0.000149;0.4325455;350
1490;472.6;0.0198;0.00478;0.000149;0.4301818;350
1492;472.3;0.0198;0.00478;0.000149;0.4301818;350
1494;472.1;0.0198;0.00478;0.000149;0.4301818;350
1496;471.8;0.0198;0.00478;0.000149;0.4325455;350
1498;471.6;0.0198;0.00478;0.000149;0.4325455;350
1500;471.4;0.0198;0.00478;0.000149;0.4301818;350
1502;471.4;0.0198;0.00478;0.000149;0.4301818;350
1504;471.1;0.0198;0.00478;0.000149;0.4278182;350
1506;470.9;0.0198;0.00478;0.000149;0.4278182;350
1508;470.7;0.0198;0.00478;0.000149;0.4301818;350
1510;470.5;0.0198;0.00478;0.000149;0.4301818;350
1512;470.3;0.0198;0.00478;0.000149;0.4325455;350
1514;470.2;0.0198;0.00478;0.000149;0.4278182;350
1516;470.1;0.0198;0.00478;0.000149;0.4278182;350
1518;469.9;0.0198;0.00478;0.000149;0.4278182;350
1520;469.7;0.0198;0.00478;0.000149;0.4301818;350
1522;469.5;0.0198;0.00478;0.000149;0.4301818;350
1524;469.5;0.0198;0.00478;0.000149;0.4301818;350
1526;469.4;0.0198;0.00478;0.000149;0.4301818;350
1528;469.3;0.0198;0.00478;0.000149;0.4278182;350
1530;469.1;0.0198;0.00478;0.000149;0.4278182;350
1532;468.9;0.0198;0.00478;0.000149;0.4278182;350
1534;468.8;0.0198;0.00478;0.000149;0.4278182;350
1536;468.7;0.0198;0.00478;0.000149;0.4278182;350
1538;468.7;0.0198;0.00478;0.000149;0.4278182;350
1540;468.5;0.0198;0.00478;0.000149;0.4278182;350
1542;468.5;0.0198;0.00478;0.000149;0.4301818;350
1544;468.3;0.0198;0.00478;0.000149;0.4278182;350
1546;468.2;0.0198;0.00478;0.000149;0.4301818;350
1548;468.2;0.0198;0.00478;0.000149;0.4301818;350
1550;468.1;0.0198;0.00478;0.000149;0.4301818;350
1552;468;0.0198;0.00478;0.000149;0.4301818;350
1554;467.9;0.0198;0.00478;0.000149;0.4301818;350
1556;467.8;0.0198;0.00478;0.000149;0.4301818;350
1558;467.7;0.0198;0.00478;0.000149;0.4301818;350
1560;467.7;0.0198;0.00478;0.000149;0.4325455;350
1562;467.6;0.0198;0.00478;0.000149;0.4301818;350
1564;467.5;0.0198;0.00478;0.000149;0.4278182;350
1566;467.4;0.0198;0.00478;0.000149;0.4301818;350
1568;467.3;0.0198;0.00478;0.000149;0.4278182;350
1570;467.2;0.0198;0.00478;0.000149;0.4301818;350
1572;467.1;0.0198;0.00478;0.000149;0.4301818;350
1574;467.1;0.0198;0.00478;0.000149;0.4301818;350
1576;467.1;0.0198;0.00478;0.000149;0.4325455;350
1578;466.9;0.0198;0.00478;0.000149;0.4325455;350
1580;466.9;0.0198;0.00478;0.000149;0.4325455;350
1582;466.8;0.0198;0.00478;0.000149;0.4325455;350
1584;466.8;0.0198;0.00478;0.000149;0.4325455;350
1586;466.7;0.0198;0.00478;0.000149;0.4325455;350
1588;466.6;0.0198;0.00478;0.000149;0.4301818;350
1590;466.5;0.0198;0.00478;0.000149;0.4301818;350
1592;466.5;0.0198;0.00478;0.000149;0.4301818;350
1594;466.3;0.0198;0.00478;0.000149;0.4301818;350
1596;466.2;0.0198;0.00478;0.000149;0.4349091;350
1598;466.3;0.0198;0.00478;0.000149;0.4325455;350
1600;466.3;0.0198;0.00478;0.000149;0.4349091;350
1602;466.4;0.0198;0.00478;0.000149;0.4325455;350
1604;466.2;0.0198;0.00478;0.000149;0.4325455;350
1606;466.2;0.0198;0.00478;0.000149;0.4325455;350
1608;466.1;0.0198;0.00478;0.000149;0.4325455;350
1610;466.1;0.0198;0.00478;0.000149;0.4372727;350
1612;466.1;0.0198;0.00478;0.000149;0.4372727;350
1614;466;0.0198;0.00478;0.000149;0.4372727;350
1616;466;0.0198;0.00478;0.000149;0.4349091;350
1618;466;0.0198;0.00478;0.000149;0.4349091;350
1620;466;0.0198;0.00478;0.000149;0.4349091;350
1622;465.9;0.0198;0.00478;0.000149;0.4349091;350
1624;465.9;0.0198;0.00478;0.000149;0.4396364;350
1626;465.9;0.0198;0.00478;0.000149;0.4372727;350
1628;465.9;0.0198;0.00478;0.000149;0.4372727;350
1630;465.8;0.0198;0.00478;0.000149;0.4372727;350
1632;465.8;0.0198;0.00478;0.000149;0.4372727;350
1634;465.7;0.0198;0.00478;0.000149;0.4396364;350
1636;465.7;0.0198;0.00478;0.000149;0.442;350
1638;465.7;0.0198;0.00478;0.000149;0.4396364;350
1640;465.6;0.0198;0.00478;0.000149;0.4396364;350
1642;465.6;0.0198;0.00478;0.000149;0.4372727;350
1644;465.5;0.0198;0.00478;0.000149;0.4396364;350
1646;465.5;0.0198;0.00478;0.000149;0.4396364;350
1648;465.4;0.0198;0.00478;0.000149;0.4396364;350
1650;465.4;0.0198;0.00478;0.000149;0.442;350
1652;465.4;0.0198;0.00478;0.000149;0.4396364;350
1654;465.3;0.0198;0.00478;0.000149;0.4396364;350
1656;465.3;0.0198;0.00478;0.000149;0.4396364;350
1658;465.2;0.0198;0.00478;0.000149;0.4396364;350
1660;465.1;0.0198;0.00478;0.000149;0.442;350
1662;465.1;0.0198;0.00478;0.000149;0.4443636;350
1664;465;0.0198;0.00478;0.000149;0.4443636;350
1666;465;0.0198;0.00478;0.000149;0.442;350
1668;465.1;0.0198;0.00478;0.000149;0.442;350
1670;464.8;0.0198;0.00478;0.000149;0.4443636;350
1672;464.9;0.0198;0.00478;0.000149;0.442;350
1674;464.8;0.0198;0.00478;0.000149;0.442;350
1676;464.6;0.0198;0.00478;0.000149;0.4396364;350
1678;464.6;0.0198;0.00478;0.000149;0.442;350
1680;464.4;0.0198;0.00478;0.000149;0.442;350
1682;464.4;0.0198;0.00478;0.000149;0.442;350
1684;464.4;0.0198;0.00478;0.000149;0.4467273;350
1686;464.3;0.0198;0.00478;0.000149;0.4443636;350
1688;464.3;0.0198;0.00478;0.000149;0.4443636;350
1690;464.2;0.0198;0.00478;0.000149;0.442;350
1692;464;0.0198;0.00439;0.000137;0.442;350
1694;463.8;0.0198;0.00439;0.000137;0.442;350
1696;463.8;0.0198;0.00439;0.000137;0.4443636;350
1698;463.7;0.0198;0.00438;0.000137;0.4467273;350
1700;463.7;0.0198;0.0044;0.000138;0.4443636;350
1702;463.5;0.0198;0.00439;0.000137;0.442;350
1704;463.5;0.0198;0.0044;0.000138;0.442;350
1706;463.3;0.0198;0.00442;0.000138;0.4396364;350
1708;463.3;0.0198;0.00442;0.000138;0.4443636;350
1710;463.3;0.0198;0.00442;0.000138;0.4443636;350
1712;463.2;0.0198;0.00446;0.000139;0.4443636;350
1714;463.1;0.0198;0.00446;0.000139;0.4443636;350
1716;463.2;0.0198;0.00449;0.000140;0.4443636;350
1718;463;0.0198;0.00449;0.000140;0.442;350
1720;463;0.0198;0.0045;0.000141;0.442;350
1722;462.7;0.0198;0.00453;0.000142;0.4396364;350
1724;462.7;0.0198;0.00455;0.000142;0.4396364;350
1726;462.6;0.0198;0.00454;0.000142;0.4396364;350
1728;462.5;0.0198;0.00458;0.000143;0.442;350
1730;462.4;0.0198;0.00458;0.000143;0.442;350
1732;462.3;0.0198;0.00459;0.000143;0.4443636;350
1734;462.3;0.0198;0.0046;0.000144;0.442;350
1736;462.2;0.0198;0.0046;0.000144;0.4443636;350
1738;462;0.0198;0.00465;0.000145;0.442;350
1740;462;0.0198;0.00465;0.000145;0.4396364;350
1742;461.9;0.0198;0.00466;0.000146;0.4396364;350
1744;461.6;0.0198;0.00466;0.000146;0.4372727;350
1746;461.6;0.0198;0.00468;0.000146;0.442;350
1748;461.5;0.0198;0.00468;0.000146;0.4443636;350
1750;461.5;0.0198;0.00468;0.000146;0.442;350
1752;461.4;0.0198;0.0047;0.000147;0.4443636;350
1754;461.3;0.0198;0.00471;0.000147;0.442;350
1756;461.3;0.0198;0.00471;0.000147;0.4396364;350
1758;461.3;0.0198;0.00471;0.000147;0.4396364;350
1760;461.1;0.0198;0.00472;0.000148;0.4372727;350
1762;461.1;0.0198;0.00471;0.000147;0.442;350
1764;461.1;0.0198;0.00472;0.000148;0.442;350
1766;461.1;0.0198;0.00472;0.000148;0.4443636;350
1768;461.1;0.0198;0.00473;0.000148;0.4443636;350
1770;461.1;0.0198;0.00472;0.000148;0.442;350
1772;461.1;0.0198;0.00473;0.000148;0.442;350
1774;461;0.0198;0.00473;0.000148;0.4396364;350
1776;460.9;0.0198;0.00474;0.000148;0.442;350
1778;460.7;0.0198;0.00473;0.000148;0.442;350
1780;460.8;0.0198;0.00474;0.000148;0.4443636;350
1782;460.9;0.0198;0.00474;0.000148;0.4443636;350
1784;460.9;0.0198;0.00474;0.000148;0.4443636;350
1786;460.9;0.0198;0.00474;0.000148;0.4443636;350
1788;460.9;0.0198;0.00475;0.000148;0.442;350
1790;460.8;0.0198;0.00474;0.000148;0.4443636;350
1792;460.8;0.0198;0.00474;0.000148;0.442;350
1794;460.6;0.0198;0.00475;0.000148;0.442;350
1796;460.7;0.0198;0.00474;0.000148;0.4443636;350
1798;460.5;0.0198;0.00475;0.000148;0.4443636;350
1800;460.6;0.0198;0.00474;0.000148;0.4490909;350
1802;460.5;0.0198;0.00475;0.000148;0.4467273;350
1804;460.7;0.0198;0.00474;0.000148;0.4467273;350
1806;460.5;0.0198;0.00475;0.000148;0.4443636;350
1808;460.6;0.0198;0.00475;0.000148;0.4443636;350
1810;460.5;0.0198;0.00475;0.000148;0.4443636;350
1812;460.3;0.0198;0.00475;0.000148;0.442;350
1814;460.3;0.0198;0.00475;0.000148;0.4443636;350
1816;460.3;0.0198;0.00475;0.000148;0.4467273;350
1818;460.3;0.0198;0.00475;0.000148;0.4490909;350
1820;460.4;0.0198;0.00475;0.000148;0.4514545;350
1822;460.4;0.0198;0.00475;0.000148;0.4467273;350
1824;460.4;0.0198;0.00475;0.000148;0.4490909;350
1826;460.4;0.0198;0.00475;0.000148;0.4467273;350
1828;460.3;0.0198;0.00476;0.000149;0.4443636;350
1830;460.2;0.0198;0.00475;0.000148;0.4467273;350
1832;460.2;0.0198;0.00475;0.000148;0.4490909;350
1834;460.2;0.0198;0.00475;0.000148;0.4490909;350
1836;460.2;0.0198;0.00475;0.000148;0.4467273;350
1838;460.2;0.0198;0.00475;0.000148;0.4467273;350
1840;460.2;0.0198;0.00476;0.000149;0.4467273;350
1842;460.2;0.0198;0.00475;0.000148;0.4538182;350
1844;460.2;0.0198;0.00476;0.000149;0.4561818;350
1846;460.3;0.0198;0.00475;0.000148;0.4538182;350
1848;460.4;0.0198;0.00476;0.000149;0.4561818;350
1850;460.4;0.0198;0.00475;0.000148;0.4514545;350
1852;460.4;0.0198;0.00476;0.000149;0.4490909;350
1854;460.3;0.0198;0.00476;0.000149;0.4490909;350
1856;460.2;0.0198;0.00476;0.000149;0.4514545;350
1858;460.2;0.0198;0.00476;0.000149;0.4538182;350
1860;460.3;0.0198;0.00476;0.000149;0.4538182;350
1862;460.3;0.0198;0.00476;0.000149;0.4538182;350
1864;460.3;0.0198;0.00475;0.000148;0.4514545;350
1866;460.3;0.0198;0.00476;0.000149;0.4514545;350
1868;460.3;0.0198;0.00475;0.000148;0.4514545;350
1870;460.3;0.0198;0.00476;0.000149;0.4514545;350
1872;460.3;0.0198;0.00476;0.000149;0.4514545;350
1874;460.3;0.0198;0.00476;0.000149;0.4538182;350
1876;460.4;0.0198;0.00476;0.000149;0.4561818;350
1878;460.5;0.0198;0.00476;0.000149;0.4561818;350
1880;460.5;0.0198;0.00476;0.000149;0.4538182;350
1882;460.4;0.0198;0.00476;0.000149;0.4561818;350
1884;460.5;0.0198;0.00476;0.000149;0.4538182;350
1886;460.4;0.0198;0.00476;0.000149;0.4561818;350
1888;460.5;0.0198;0.00476;0.000149;0.4561818;350
1890;460.5;0.0198;0.00476;0.000149;0.4561818;350
1892;460.5;0.0198;0.00477;0.000149;0.4561818;350
1894;460.5;0.0198;0.00476;0.000149;0.4561818;350
1896;460.6;0.0198;0.00477;0.000149;0.4609091;350
1898;460.6;0.0198;0.00476;0.000149;0.4609091;350
1900;460.7;0.0198;0.00477;0.000149;0.4609091;350
1902;460.7;0.0198;0.00476;0.000149;0.4609091;350
1904;460.7;0.0198;0.00477;0.000149;0.4585455;350
1906;460.7;0.0198;0.00476;0.000149;0.4609091;350
1908;460.7;0.0198;0.00477;0.000149;0.4585455;350
1910;460.7;0.0198;0.00476;0.000149;0.4609091;350
1912;460.7;0.0198;0.00476;0.000149;0.4609091;350
1914;460.7;0.0198;0.00477;0.000149;0.4609091;350
1916;460.7;0.0198;0.00476;0.000149;0.4609091;350
1918;460.7;0.0198;0.00477;0.000149;0.4609091;350
1920;460.7;0.0198;0.00476;0.000149;0.4632727;350
1922;460.8;0.0198;0.00477;0.000149;0.4632727;350
1924;460.8;0.0198;0.00477;0.000149;0.4632727;350
1926;460.8;0.0198;0.00477;0.000149;0.4656364;350
1928;460.8;0.0198;0.00477;0.000149;0.4656364;350
1930;460.9;0.0198;0.00477;0.000149;0.468;350
1932;460.9;0.0198;0.00477;0.000149;0.4656364;350
1934;460.9;0.0198;0.00477;0.000149;0.468;350
1936;460.9;0.0198;0.00477;0.000149;0.468;350
1938;460.9;0.0198;0.00477;0.000149;0.468;350
1940;460.9;0.0198;0.00476;0.000149;0.468;350
1942;460.9;0.0198;0.00477;0.000149;0.4656364;315
1944;460.9;0.0198;0.00477;0.000149;0.468;294
1946;460.9;0.0198;0.00477;0.000149;0.4656364;273
1948;460.8;0.0198;0.00477;0.000149;0.4656364;238
1950;460.8;0.0198;0.00478;0.000149;0.4656364;217
1952;460.8;0.0198;0.00477;0.000149;0.4656364;238
1954;460.8;0.0198;0.00477;0.000149;0.468;217
1956;460.8;0.0198;0.00477;0.000149;0.468;238
1958;460.8;0.0198;0.00477;0.000149;0.4703636;273
1960;460.9;0.0198;0.00477;0.000149;0.468;294
1962;460.9;0.0198;0.00477;0.000149;0.4703636;308
1964;460.9;0.0198;0.00477;0.000149;0.4727273;350
1966;461;0.0198;0.00477;0.000149;0.4703636;350
1968;461;0.0198;0.00478;0.000149;0.4750909;350
1970;461;0.0198;0.00477;0.000149;0.4727273;350
1972;461;0.0198;0.00478;0.000149;0.4727273;350
1974;461;0.0198;0.00477;0.000149;0.4727273;350
1976;460.9;0.0198;0.00478;0.000149;0.4703636;350
1978;460.9;0.0198;0.00477;0.000149;0.4703636;350
1980;460.8;0.0198;0.00478;0.000149;0.4703636;350
1982;460.8;0.0198;0.00478;0.000149;0.4727273;350
1984;460.8;0.0198;0.00477;0.000149;0.4727273;350
1986;460.9;0.0198;0.00478;0.000149;0.4727273;350
1988;460.9;0.0198;0.00478;0.000149;0.4727273;350
1990;460.9;0.0198;0.00478;0.000149;0.4703636;350
1992;460.9;0.0198;0.00478;0.000149;0.4727273;350
1994;460.9;0.0198;0.00478;0.000149;0.4750909;350
1996;460.9;0.0198;0.00478;0.000149;0.4774545;350
1998;460.9;0.0198;0.00478;0.000149;0.4774545;350
2000;460.9;0.0198;0.00478;0.000149;0.4750909;350
2002;460.8;0.0198;0.00479;0.000150;0.4750909;350
2004;460.9;0.0198;0.00478;0.000149;0.4750909;350
2006;460.8;0.0198;0.00479;0.000150;0.4798182;350
2008;460.9;0.0198;0.00478;0.000149;0.4774545;350
2010;460.9;0.0198;0.00479;0.000150;0.4774545;350
2012;460.9;0.0198;0.00478;0.000149;0.4774545;350
2014;460.9;0.0198;0.00478;0.000149;0.4750909;350
2016;460.8;0.0198;0.00478;0.000149;0.4774545;350
2018;460.8;0.0198;0.00478;0.000149;0.4774545;350
2020;460.8;0.0198;0.00479;0.000150;0.4798182;350
2022;460.8;0.0198;0.00479;0.000150;0.4798182;350
2024;460.8;0.0198;0.00479;0.000150;0.4774545;350
2026;460.8;0.0198;0.00479;0.000150;0.4798182;350
2028;460.8;0.0198;0.00478;0.000149;0.4774545;350
2030;460.7;0.0198;0.00478;0.000149;0.4774545;350
2032;460.7;0.0198;0.00479;0.000150;0.4774545;350
2034;460.7;0.0198;0.00478;0.000149;0.4798182;350
2036;460.7;0.0198;0.00479;0.000150;0.4821818;350
2038;460.8;0.0198;0.00478;0.000149;0.4821818;350
2040;460.8;0.0198;0.00479;0.000150;0.4845455;350
2042;460.9;0.0198;0.00478;0.000149;0.4821818;350
2044;460.9;0.0198;0.00479;0.000150;0.4821818;350
2046;460.7;0.0198;0.00478;0.000149;0.4798182;350
2048;460.8;0.0198;0.00478;0.000149;0.4798182;350
2050;460.7;0.0198;0.00478;0.000149;0.4798182;350
2052;460.7;0.0198;0.00478;0.000149;0.4821818;350
2054;460.7;0.0198;0.00478;0.000149;0.4845455;350
2056;460.7;0.0198;0.00478;0.000149;0.4821818;350
2058;460.6;0.0198;0.00479;0.000150;0.4821818;350
2060;460.8;0.0198;0.00478;0.000149;0.4821818;350
2062;460.8;0.0198;0.00479;0.000150;0.4821818;350
2064;460.7;0.0198;0.00478;0.000149;0.4821818;350
2066;460.7;0.0198;0.00478;0.000149;0.4821818;350
2068;460.7;0.0198;0.00478;0.000149;0.4892727;350
2070;460.7;0.0198;0.00478;0.000149;0.4869091;350
2072;460.8;0.0198;0.00478;0.000149;0.4869091;350
2074;460.8;0.0198;0.00478;0.000149;0.4869091;350
2076;460.8;0.0198;0.00478;0.000149;0.4845455;350
2078;460.7;0.0198;0.00479;0.000150;0.4845455;350
2080;460.7;0.0198;0.00478;0.000149;0.4869091;350
2082;460.7;0.0198;0.00478;0.000149;0.4892727;350
2084;460.7;0.0198;0.00478;0.000149;0.4892727;350
2086;460.7;0.0198;0.00478;0.000149;0.4869091;350
2088;460.7;0.0198;0.00478;0.000149;0.4869091;350
2090;460.6;0.0198;0.00478;0.000149;0.4821818;350
2092;460.6;0.0198;0.00478;0.000149;0.4892727;350
2094;460.6;0.0198;0.00478;0.000149;0.4892727;350
2096;460.6;0.0198;0.00478;0.000149;0.4916364;350
2098;460.6;0.0198;0.00478;0.000149;0.4892727;350
2100;460.6;0.0198;0.00478;0.000149;0.4892727;350
2102;460.6;0.0198;0.00477;0.000149;0.4892727;350
2104;460.6;0.0198;0.00478;0.000149;0.4892727;350
2106;460.6;0.0198;0.00477;0.000149;0.4892727;350
2108;460.6;0.0198;0.00477;0.000149;0.4892727;350
2110;460.5;0.0198;0.00478;0.000149;0.4892727;350
2112;460.5;0.0198;0.00477;0.000149;0.494;350
2114;460.6;0.0198;0.00478;0.000149;0.494;350
2116;460.6;0.0198;0.00478;0.000149;0.494;350
2118;460.6;0.0198;0.00478;0.000149;0.4916364;350
2120;460.6;0.0198;0.00478;0.000149;0.4916364;350
2122;460.6;0.0198;0.00478;0.000149;0.4916364;350
2124;460.6;0.0198;0.00478;0.000149;0.4916364;350
2126;460.5;0.0198;0.00478;0.000149;0.4916364;350
2128;460.5;0.0198;0.00477;0.000149;0.4892727;350
2130;460.4;0.0198;0.00478;0.000149;0.4892727;308
2132;460.4;0.0198;0.00477;0.000149;0.4916364;308
2134;460.4;0.0198;0.00478;0.000149;0.494;273
2136;460.4;0.0198;0.00477;0.000149;0.494;238
2138;460.4;0.0198;0.00478;0.000149;0.4916364;231
2140;460.4;0.0198;0.00477;0.000149;0.4916364;238
2142;460.4;0.0198;0.00478;0.000149;0.4916364;224
2144;460.4;0.0198;0.00478;0.000149;0.494;231
2146;460.4;0.0198;0.00477;0.000149;0.494;231
2148;460.4;0.0198;0.00478;0.000149;0.4963636;238
2150;460.4;0.0198;0.00477;0.000149;0.4963636;273
2152;460.5;0.0198;0.00477;0.000149;0.4963636;294
2154;460.5;0.0198;0.00478;0.000149;0.4963636;315
2156;460.4;0.0198;0.00478;0.000149;0.494;350
2158;460.4;0.0198;0.00477;0.000149;0.4963636;350
2160;460.3;0.0198;0.00478;0.000149;0.4963636;350
2162;460.3;0.0198;0.00477;0.000149;0.4987273;350
2164;460.4;0.0198;0.00478;0.000149;0.4987273;350
2166;460.4;0.0198;0.00478;0.000149;0.4987273;350
2168;460.4;0.0198;0.00478;0.000149;0.4987273;350
2170;460.4;0.0198;0.00478;0.000149;0.4963636;350
2172;460.4;0.0198;0.00478;0.000149;0.4963636;350
2174;460.3;0.0198;0.00478;0.000149;0.4987273;350
2176;460.4;0.0198;0.00478;0.000149;0.5010909;350
2178;460.4;0.0198;0.00478;0.000149;0.5010909;350
2180;460.4;0.0198;0.00478;0.000149;0.4987273;350
2182;460.4;0.0198;0.00478;0.000149;0.4987273;350
2184;460.4;0.0198;0.00478;0.000149;0.4987273;350
2186;460.4;0.0198;0.00478;0.000149;0.5034545;350
2188;460.4;0.0198;0.00478;0.000149;0.5010909;350
2190;460.4;0.0198;0.00478;0.000149;0.5010909;350
2192;460.4;0.0198;0.00478;0.000149;0.5010909;350
2194;460.4;0.0198;0.00478;0.000149;0.5010909;350
2196;460.4;0.0198;0.00477;0.000149;0.5010909;350
2198;460.2;0.0198;0.00478;0.000149;0.4987273;350
2200;460.3;0.0198;0.00478;0.000149;0.5010909;350
2202;460.3;0.0198;0.00478;0.000149;0.5034545;350
2204;460.3;0.0198;0.00477;0.000149;0.5034545;350
2206;460.4;0.0198;0.00478;0.000149;0.5058182;350
2208;460.4;0.0198;0.00478;0.000149;0.5034545;350
2210;460.4;0.0198;0.00478;0.000149;0.5034545;350
2212;460.3;0.0198;0.00478;0.000149;0.5010909;350
2214;460.3;0.0198;0.00478;0.000149;0.5010909;350
2216;460.2;0.0198;0.00478;0.000149;0.5034545;350
2218;460.2;0.0198;0.00478;0.000149;0.5058182;350
2220;460.2;0.0198;0.00478;0.000149;0.5081818;350
2222;460.3;0.0198;0.00478;0.000149;0.5058182;350
2224;460.3;0.0198;0.00478;0.000149;0.5058182;350
2226;460.2;0.0198;0.00478;0.000149;0.5058182;350
2228;460.2;0.0198;0.00478;0.000149;0.5034545;350
2230;460.1;0.0198;0.00478;0.000149;0.5034545;350
2232;460.1;0.0198;0.00478;0.000149;0.5058182;350
2234;460.1;0.0198;0.00478;0.000149;0.5081818;350
2236;460.1;0.0198;0.00478;0.000149;0.5081818;350
2238;460.1;0.0198;0.00477;0.000149;0.5105455;350
2240;460.2;0.0198;0.00478;0.000149;0.5081818;350
2242;460.2;0.0198;0.00478;0.000149;0.5081818;350
2244;460.1;0.0198;0.00478;0.000149;0.5058182;350
2246;460.1;0.0198;0.00478;0.000149;0.5034545;350
2248;460;0.0198;0.00478;0.000149;0.5058182;350
2250;460;0.0198;0.00478;0.000149;0.5081818;350
2252;460;0.0198;0.00478;0.000149;0.5105455;350
2254;460;0.0198;0.00478;0.000149;0.5105455;350
2256;460;0.0198;0.00478;0.000149;0.5081818;350
2258;460;0.0198;0.00478;0.000149;0.5081818;350
2260;460;0.0198;0.00478;0.000149;0.5058182;350
2262;459.9;0.0198;0.00478;0.000149;0.5081818;350
2264;459.9;0.0198;0.00478;0.000149;0.5105455;350
2266;459.8;0.0198;0.00478;0.000149;0.5105455;350
2268;459.9;0.0198;0.00478;0.000149;0.5105455;350
2270;459.9;0.0198;0.00478;0.000149;0.5081818;350
2272;459.9;0.0198;0.00478;0.000149;0.5105455;350
2274;459.8;0.0198;0.00478;0.000149;0.5081818;350
2276;459.8;0.0198;0.00478;0.000149;0.5081818;350
2278;459.7;0.0198;0.00479;0.000150;0.5105455;350
2280;459.7;0.0198;0.00478;0.000149;0.5105455;350
2282;459.7;0.0198;0.00478;0.000149;0.5129091;350
2284;459.8;0.0198;0.00478;0.000149;0.5129091;350
2286;459.8;0.0198;0.00478;0.000149;0.5129091;350
2288;459.7;0.0198;0.00478;0.000149;0.5105455;350
2290;459.7;0.0198;0.00478;0.000149;0.5105455;350
2292;459.7;0.0198;0.00479;0.000150;0.5105455;350
2294;459.6;0.0198;0.00479;0.000150;0.5129091;350
2296;459.7;0.0198;0.00478;0.000149;0.5129091;350
2298;459.7;0.0198;0.00478;0.000149;0.5129091;350
2300;459.7;0.0198;0.00478;0.000149;0.5152727;350
2302;459.7;0.0198;0.00478;0.000149;0.5129091;350
2304;459.7;0.0198;0.00478;0.000149;0.5129091;308
2306;459.6;0.0198;0.00478;0.000149;0.5129091;308
2308;459.6;0.0198;0.00478;0.000149;0.5105455;273
2310;459.5;0.0198;0.00478;0.000149;0.5129091;238
2312;459.5;0.0198;0.00478;0.000149;0.5105455;231
2314;459.5;0.0198;0.00478;0.000149;0.5152727;238
2316;459.5;0.0198;0.00478;0.000149;0.5152727;210
2318;459.5;0.0198;0.00478;0.000149;0.5152727;231
2320;459.6;0.0198;0.00478;0.000149;0.5152727;231
2322;459.5;0.0198;0.00478;0.000149;0.5129091;238
2324;459.5;0.0198;0.00478;0.000149;0.5129091;273
2326;459.5;0.0198;0.00479;0.000150;0.5105455;308
2328;459.4;0.0198;0.00478;0.000149;0.5152727;315
2330;459.4;0.0198;0.00478;0.000149;0.5152727;350
2332;459.4;0.0198;0.00478;0.000149;0.5176364;350
2334;459.5;0.0198;0.00478;0.000149;0.5176364;350
2336;459.4;0.0198;0.00478;0.000149;0.5152727;350
2338;459.5;0.0198;0.00478;0.000149;0.5152727;350
2340;459.4;0.0198;0.00479;0.000150;0.5129091;350
2342;459.3;0.0198;0.00478;0.000149;0.5152727;350
2344;459.3;0.0198;0.00478;0.000149;0.5176364;350
2346;459.3;0.0198;0.00478;0.000149;0.52;350
2348;459.4;0.0198;0.00479;0.000150;0.52;350
2350;459.4;0.0198;0.00478;0.000149;0.52;350
2352;459.4;0.0198;0.00478;0.000149;0.52;350
2354;459.4;0.0198;0.00478;0.000149;0.5176364;350
2356;459.4;0.0198;0.00478;0.000149;0.5176364;350
2358;459.3;0.0198;0.00478;0.000149;0.5176364;350
2360;459.3;0.0198;0.00478;0.000149;0.5176364;350
2362;459.3;0.0198;0.00478;0.000149;0.5176364;350
2364;459.2;0.0198;0.00479;0.000150;0.5176364;350
2366;459.3;0.0198;0.00478;0.000149;0.52;350
2368;459.3;0.0198;0.00478;0.000149;0.52;350
2370;459.4;0.0198;0.00478;0.000149;0.5223636;350
2372;459.4;0.0198;0.00478;0.000149;0.52;350
2374;459.4;0.0198;0.00478;0.000149;0.52;350
2376;459.4;0.0198;0.00478;0.000149;0.52;350
2378;459.3;0.0198;0.00478;0.000149;0.5176364;350
2380;459.3;0.0198;0.00477;0.000149;0.5223636;350
2382;459.3;0.0198;0.00478;0.000149;0.5223636;350
2384;459.4;0.0198;0.00477;0.000149;0.5247273;350
2386;459.4;0.0198;0.00478;0.000149;0.5247273;350
2388;459.4;0.0198;0.00478;0.000149;0.5223636;350
2390;459.4;0.0198;0.00478;0.000149;0.5223636;350
2392;459.4;0.0198;0.00478;0.000149;0.5223636;350
2394;459.4;0.0198;0.00477;0.000149;0.5247273;350
2396;459.3;0.0198;0.00477;0.000149;0.52;350
2398;459.3;0.0198;0.00478;0.000149;0.5223636;350
2400;459.3;0.0198;0.00478;0.000149;0.5223636;350
2402;459.3;0.0198;0.00478;0.000149;0.5247273;350
2404;459.3;0.0198;0.00477;0.000149;0.5270909;350
2406;459.4;0.0198;0.00478;0.000149;0.5270909;350
2408;459.4;0.0198;0.00478;0.000149;0.5270909;350
2410;459.4;0.0198;0.00477;0.000149;0.5247273;350
2412;459.4;0.0198;0.00478;0.000149;0.5247273;350
2414;459.3;0.0198;0.00477;0.000149;0.5223636;350
2416;459.3;0.0198;0.00478;0.000149;0.5247273;350
2418;459.2;0.0198;0.00477;0.000149;0.5270909;350
2420;459.2;0.0198;0.00478;0.000149;0.5270909;350
2422;459.2;0.0198;0.00477;0.000149;0.5270909;350
2424;459.3;0.0198;0.00478;0.000149;0.5247273;350
2426;459.2;0.0198;0.00477;0.000149;0.5247273;350
2428;459.2;0.0198;0.00477;0.000149;0.5270909;350
2430;459.2;0.0198;0.00478;0.000149;0.5294545;350
2432;459.2;0.0198;0.00478;0.000149;0.5294545;350
2434;459.2;0.0198;0.00477;0.000149;0.5270909;350
2436;459.2;0.0198;0.00478;0.000149;0.5270909;350
2438;459.1;0.0198;0.00478;0.000149;0.5247273;350
2440;459.1;0.0198;0.00478;0.000149;0.5247273;350
2442;459.1;0.0198;0.00478;0.000149;0.5294545;350
2444;459.1;0.0198;0.00477;0.000149;0.5294545;350
2446;459.1;0.0198;0.00477;0.000149;0.5318182;350
2448;459.1;0.0198;0.00478;0.000149;0.5270909;350
2450;459;0.0198;0.00478;0.000149;0.5270909;350
2452;459;0.0198;0.00477;0.000149;0.5270909;350
2454;458.9;0.0198;0.00478;0.000149;0.5294545;350
2456;458.9;0.0198;0.00477;0.000149;0.5294545;350
2458;458.9;0.0198;0.00478;0.000149;0.5294545;350
2460;459;0.0198;0.00477;0.000149;0.5318182;350
2462;458.9;0.0198;0.00478;0.000149;0.5270909;350
2464;458.9;0.0198;0.00477;0.000149;0.5270909;350
2466;458.9;0.0198;0.00477;0.000149;0.5270909;350
2468;458.8;0.0198;0.00478;0.000149;0.5294545;350
2470;458.8;0.0198;0.00477;0.000149;0.5318182;350
2472;458.9;0.0198;0.00478;0.000149;0.5318182;350
2474;458.9;0.0198;0.00477;0.000149;0.5318182;350
2476;458.9;0.0198;0.00478;0.000149;0.5294545;350
2478;458.8;0.0198;0.00477;0.000149;0.5294545;350
2480;458.8;0.0198;0.00477;0.000149;0.5294545;350
2482;458.8;0.0198;0.00477;0.000149;0.5318182;350
2484;458.8;0.0198;0.00478;0.000149;0.5341818;350
2486;458.8;0.0198;0.00477;0.000149;0.5318182;350
2488;458.9;0.0198;0.00478;0.000149;0.5318182;350
2490;458.8;0.0198;0.00477;0.000149;0.5294545;350
2492;458.8;0.0198;0.00477;0.000149;0.5294545;350
2494;458.7;0.0198;0.00478;0.000149;0.5294545;350
2496;458.7;0.0198;0.00478;0.000149;0.5341818;350
2498;458.7;0.0198;0.00478;0.000149;0.5341818;350
2500;458.8;0.0198;0.00477;0.000149;0.5341818;350
2502;458.8;0.0198;0.00478;0.000149;0.5341818;350
2504;458.8;0.0198;0.00477;0.000149;0.5318182;350
2506;458.8;0.0198;0.00478;0.000149;0.5341818;350
2508;458.7;0.0198;0.00478;0.000149;0.5318182;350
2510;458.7;0.0198;0.00478;0.000149;0.5318182;343
2512;458.6;0.0198;0.00477;0.000149;0.5341818;322
2514;458.7;0.0198;0.00478;0.000149;0.5318182;280
2516;458.7;0.0198;0.00477;0.000149;0.5365455;266
2518;458.7;0.0198;0.00478;0.000149;0.5365455;245
2520;458.7;0.0198;0.00477;0.000149;0.5365455;217
2522;458.7;0.0198;0.00478;0.000149;0.5365455;224
2524;458.7;0.0198;0.00478;0.000149;0.5365455;238
2526;458.7;0.0198;0.00477;0.000149;0.5365455;245
2528;458.6;0.0198;0.00478;0.000149;0.5341818;273
2530;458.6;0.0198;0.00478;0.000149;0.5341818;315
2532;458.6;0.0198;0.00478;0.000149;0.5318182;322
2534;458.5;0.0198;0.00477;0.000149;0.5365455;350
2536;458.5;0.0198;0.00478;0.000149;0.5389091;350
2538;458.6;0.0198;0.00477;0.000149;0.5365455;350
2540;458.6;0.0198;0.00478;0.000149;0.5389091;350
2542;458.6;0.0198;0.00477;0.000149;0.5365455;350
2544;458.6;0.0198;0.00478;0.000149;0.5365455;350
2546;458.5;0.0198;0.00478;0.000149;0.5365455;350
2548;458.5;0.0198;0.00478;0.000149;0.5365455;350
2550;458.5;0.0198;0.00477;0.000149;0.5365455;350
2552;458.4;0.0198;0.00477;0.000149;0.5365455;350
2554;458.4;0.0198;0.00477;0.000149;0.5389091;350
2556;458.5;0.0198;0.00478;0.000149;0.5412727;350
2558;458.5;0.0198;0.00477;0.000149;0.5412727;350
2560;458.5;0.0198;0.00477;0.000149;0.5389091;350
2562;458.5;0.0198;0.00478;0.000149;0.5389091;350
2564;458.4;0.0198;0.00478;0.000149;0.5365455;350
2566;458.4;0.0198;0.00477;0.000149;0.5389091;350
2568;458.3;0.0198;0.00477;0.000149;0.5412727;350
2570;458.3;0.0198;0.00477;0.000149;0.5412727;350
2572;458.3;0.0198;0.00477;0.000149;0.5412727;350
2574;458.3;0.0198;0.00477;0.000149;0.5389091;350
2576;458.3;0.0198;0.00477;0.000149;0.5389091;350
2578;458.2;0.0198;0.00478;0.000149;0.5365455;350
2580;458.2;0.0198;0.00477;0.000149;0.5365455;350
2582;458.1;0.0198;0.00477;0.000149;0.5412727;350
2584;458.1;0.0198;0.00477;0.000149;0.5412727;350
2586;458.1;0.0198;0.00477;0.000149;0.5412727;350
2588;458.1;0.0198;0.00477;0.000149;0.5389091;350
2590;458.1;0.0198;0.00477;0.000149;0.5389091;350
2592;458;0.0198;0.00478;0.000149;0.5389091;350
2594;458;0.0198;0.00477;0.000149;0.5412727;350
2596;458;0.0198;0.00478;0.000149;0.5436364;350
2598;458;0.0198;0.00478;0.000149;0.5412727;350
2600;458;0.0198;0.00477;0.000149;0.5412727;350
2602;457.9;0.0198;0.00477;0.000149;0.5389091;350
2604;457.9;0.0198;0.00477;0.000149;0.5389091;350
2606;457.9;0.0198;0.00477;0.000149;0.5412727;350
2608;457.9;0.0198;0.00477;0.000149;0.5436364;350
2610;457.9;0.0198;0.00477;0.000149;0.546;350
2612;457.9;0.0198;0.00478;0.000149;0.5436364;350
2614;457.9;0.0198;0.00477;0.000149;0.5436364;350
2616;457.8;0.0198;0.00478;0.000149;0.5412727;350
2618;457.8;0.0198;0.00477;0.000149;0.5389091;350
2620;457.7;0.0198;0.00477;0.000149;0.5389091;350
2622;457.6;0.0198;0.00477;0.000149;0.5412727;350
2624;457.6;0.0198;0.00477;0.000149;0.5436364;350
2626;457.6;0.0198;0.00477;0.000149;0.5412727;350
2628;457.6;0.0198;0.00477;0.000149;0.5412727;350
2630;457.5;0.0198;0.00478;0.000149;0.5389091;350
2632;457.5;0.0198;0.00477;0.000149;0.5389091;350
2634;457.5;0.0198;0.00478;0.000149;0.5412727;350
2636;457.4;0.0198;0.00477;0.000149;0.5436364;350
2638;457.5;0.0198;0.00477;0.000149;0.546;350
2640;457.5;0.0198;0.00477;0.000149;0.5436364;350
2642;457.5;0.0198;0.00477;0.000149;0.5436364;350
2644;457.5;0.0198;0.00477;0.000149;0.5412727;350
2646;457.4;0.0198;0.00477;0.000149;0.5412727;350
2648;457.3;0.0198;0.00477;0.000149;0.5412727;350
2650;457.3;0.0198;0.00478;0.000149;0.5389091;350
2652;457.2;0.0198;0.00477;0.000149;0.5412727;350
2654;457.2;0.0198;0.00478;0.000149;0.5412727;350
2656;457.2;0.0198;0.00477;0.000149;0.546;350
2658;457.2;0.0198;0.00477;0.000149;0.5436364;350
2660;457.3;0.0198;0.00477;0.000149;0.5436364;350
2662;457.3;0.0198;0.00477;0.000149;0.5436364;350
2664;457.2;0.0198;0.00477;0.000149;0.5412727;350
2666;457.2;0.0198;0.00477;0.000149;0.5412727;350
2668;457.1;0.0198;0.00478;0.000149;0.5412727;350
2670;457.1;0.0198;0.00477;0.000149;0.546;350
2672;457.1;0.0198;0.00478;0.000149;0.5436364;350
2674;457.1;0.0198;0.00477;0.000149;0.5436364;350
2676;457.1;0.0198;0.00477;0.000149;0.5436364;350
2678;457;0.0198;0.00477;0.000149;0.5412727;350
2680;456.9;0.0198;0.00477;0.000149;0.5412727;350
2682;456.9;0.0198;0.00477;0.000149;0.5436364;350
2684;456.9;0.0198;0.00478;0.000149;0.5483636;350
2686;456.9;0.0198;0.00477;0.000149;0.546;350
2688;456.9;0.0198;0.00477;0.000149;0.546;350
2690;456.9;0.0198;0.00478;0.000149;0.546;336
2692;456.9;0.0198;0.00477;0.000149;0.5436364;315
2694;456.8;0.0198;0.00477;0.000149;0.546;280
2696;456.8;0.0198;0.00477;0.000149;0.546;259
2698;456.8;0.0198;0.00477;0.000149;0.546;238
2700;456.8;0.0198;0.00477;0.000149;0.5436364;224
2702;456.7;0.0198;0.00478;0.000149;0.5436364;238
2704;456.7;0.0198;0.00477;0.000149;0.5436364;252
2706;456.6;0.0198;0.00478;0.000149;0.5412727;273
2708;456.5;0.0198;0.00477;0.000149;0.5436364;294
2710;456.5;0.0198;0.00478;0.000149;0.5412727;329
2712;456.5;0.0198;0.00477;0.000149;0.546;343
2714;456.4;0.0198;0.00477;0.000149;0.546;350
2716;456.5;0.0198;0.00477;0.000149;0.546;350
2718;456.5;0.0198;0.00477;0.000149;0.546;350
2720;456.4;0.0198;0.00478;0.000149;0.5436364;350
2722;456.4;0.0198;0.00477;0.000149;0.5436364;350
2724;456.4;0.0198;0.00477;0.000149;0.5412727;350
2726;456.3;0.0198;0.00478;0.000149;0.546;350
2728;456.3;0.0198;0.00478;0.000149;0.546;350
2730;456.3;0.0198;0.00477;0.000149;0.546;350
2732;456.3;0.0198;0.00477;0.000149;0.546;350
2734;456.3;0.0198;0.00478;0.000149;0.5436364;350
2736;456.2;0.0198;0.00478;0.000149;0.5436364;350
2738;456.1;0.0198;0.00478;0.000149;0.5412727;350
2740;456.1;0.0198;0.00477;0.000149;0.5436364;350
2742;456.1;0.0198;0.00478;0.000149;0.5436364;350
2744;456.1;0.0198;0.00478;0.000149;0.546;350
2746;456.1;0.0198;0.00478;0.000149;0.546;350
2748;456;0.0198;0.00478;0.000149;0.5436364;350
2750;456;0.0198;0.00478;0.000149;0.5436364;350
2752;456;0.0198;0.00478;0.000149;0.5412727;350
2754;455.9;0.0198;0.00478;0.000149;0.5436364;350
2756;455.9;0.0198;0.00478;0.000149;0.5436364;350
2758;455.9;0.0198;0.00477;0.000149;0.5483636;350
2760;455.9;0.0198;0.00478;0.000149;0.5483636;350
2762;455.9;0.0198;0.00478;0.000149;0.546;350
2764;455.9;0.0198;0.00478;0.000149;0.546;350
2766;455.8;0.0198;0.00478;0.000149;0.5436364;350
2768;455.7;0.0198;0.00478;0.000149;0.5436364;350
2770;455.7;0.0198;0.00478;0.000149;0.5436364;350
2772;455.6;0.0198;0.00478;0.000149;0.546;350
2774;455.6;0.0198;0.00478;0.000149;0.546;350
2776;455.6;0.0198;0.00478;0.000149;0.546;350
2778;455.6;0.0198;0.00479;0.000150;0.546;350
2780;455.6;0.0198;0.00478;0.000149;0.5436364;350
2782;455.6;0.0198;0.00478;0.000149;0.546;350
2784;455.6;0.0198;0.00478;0.000149;0.5412727;350
2786;455.5;0.0198;0.00478;0.000149;0.546;350
2788;455.5;0.0198;0.00478;0.000149;0.5483636;350
2790;455.5;0.0198;0.00478;0.000149;0.546;350
2792;455.5;0.0198;0.00478;0.000149;0.546;350
2794;455.5;0.0198;0.00479;0.000150;0.5436364;350
2796;455.5;0.0198;0.00478;0.000149;0.5436364;350
2798;455.5;0.0198;0.00478;0.000149;0.5436364;350
2800;455.4;0.0198;0.00478;0.000149;0.5436364;350
2802;455.4;0.0198;0.00478;0.000149;0.546;350
2804;455.4;0.0198;0.00478;0.000149;0.5483636;350
2806;455.4;0.0198;0.00478;0.000149;0.5483636;350
2808;455.4;0.0198;0.00478;0.000149;0.546;350
2810;455.4;0.0198;0.00477;0.000149;0.546;350
2812;455.4;0.0198;0.00478;0.000149;0.546;350
2814;455.4;0.0198;0.00478;0.000149;0.546;350
2816;455.3;0.0198;0.00478;0.000149;0.5436364;350
2818;455.3;0.0198;0.00478;0.000149;0.5436364;350
2820;455.3;0.0198;0.00478;0.000149;0.546;350
2822;455.3;0.0198;0.00478;0.000149;0.5436364;350
2824;455.2;0.0198;0.00477;0.000149;0.546;350
2826;455.2;0.0198;0.00478;0.000149;0.546;350
2828;455.2;0.0198;0.00478;0.000149;0.5483636;350
2830;455.2;0.0198;0.00478;0.000149;0.5483636;350
2832;455.3;0.0198;0.00478;0.000149;0.5483636;350
2834;455.3;0.0198;0.00478;0.000149;0.5483636;350
2836;455.3;0.0198;0.00478;0.000149;0.546;350
2838;455.3;0.0198;0.00478;0.000149;0.546;350
2840;455.2;0.0198;0.00478;0.000149;0.5436364;350
2842;455.2;0.0198;0.00478;0.000149;0.546;350
2844;455.1;0.0198;0.00478;0.000149;0.5436364;350
2846;455.1;0.0198;0.00479;0.000150;0.546;350
2848;455.1;0.0198;0.00478;0.000149;0.546;350
2850;455.1;0.0198;0.00479;0.000150;0.5483636;350
2852;455.1;0.0198;0.00478;0.000149;0.5507273;350
2854;455.2;0.0198;0.00478;0.000149;0.5483636;350
2856;455.2;0.0198;0.00478;0.000149;0.5483636;350
2858;455.1;0.0198;0.00478;0.000149;0.546;350
2860;455.1;0.0198;0.00478;0.000149;0.546;350
2862;455;0.0198;0.00478;0.000149;0.546;350
2864;455;0.0198;0.00479;0.000150;0.5436364;350
2866;454.9;0.0198;0.00478;0.000149;0.546;350
2868;454.9;0.0198;0.00479;0.000150;0.546;336
2870;454.9;0.0198;0.00478;0.000149;0.5483636;308
2872;454.9;0.0198;0.00478;0.000149;0.5483636;301
2874;455;0.0198;0.00478;0.000149;0.5530909;266
2876;455;0.0198;0.00478;0.000149;0.5507273;266
2878;455;0.0198;0.00478;0.000149;0.5483636;273
2880;455;0.0198;0.00479;0.000150;0.5483636;308
2882;454.9;0.0198;0.00478;0.000149;0.546;308
2884;454.8;0.0198;0.00478;0.000149;0.546;343
2886;454.7;0.0198;0.00478;0.000149;0.546;343
2888;454.7;0.0198;0.00478;0.000149;0.5483636;350
2890;454.7;0.0198;0.00478;0.000149;0.5483636;350
2892;454.7;0.0198;0.00478;0.000149;0.5483636;350
2894;454.7;0.0198;0.00478;0.000149;0.5483636;350
2896;454.7;0.0198;0.00478;0.000149;0.5483636;350
2898;454.7;0.0198;0.00478;0.000149;0.5483636;350
2900;454.7;0.0198;0.00478;0.000149;0.5483636;350
2902;454.6;0.0198;0.00478;0.000149;0.5483636;350
2904;454.6;0.0198;0.00478;0.000149;0.546;350
2906;454.6;0.0198;0.00478;0.000149;0.546;350
2908;454.6;0.0198;0.00478;0.000149;0.5483636;350
2910;454.5;0.0198;0.00478;0.000149;0.546;350
2912;454.5;0.0198;0.00477;0.000149;0.546;350
2914;454.5;0.0198;0.00478;0.000149;0.546;350
2916;454.4;0.0198;0.00477;0.000149;0.546;350
2918;454.5;0.0198;0.00478;0.000149;0.546;350
2920;454.4;0.0198;0.00477;0.000149;0.546;350
2922;454.4;0.0198;0.00478;0.000149;0.546;350
2924;454.4;0.0198;0.00478;0.000149;0.546;350
2926;454.4;0.0198;0.00478;0.000149;0.5483636;350
2928;454.4;0.0198;0.00478;0.000149;0.5483636;350
2930;454.4;0.0198;0.00478;0.000149;0.546;350
2932;454.4;0.0198;0.00478;0.000149;0.5483636;350
2934;454.4;0.0198;0.00477;0.000149;0.5483636;350
2936;454.4;0.0198;0.00478;0.000149;0.5483636;350
2938;454.4;0.0198;0.00477;0.000149;0.5483636;350
2940;454.4;0.0198;0.00477;0.000149;0.5507273;350
2942;454.4;0.0198;0.00478;0.000149;0.5483636;350
2944;454.4;0.0198;0.00478;0.000149;0.5507273;350
2946;454.4;0.0198;0.00478;0.000149;0.5507273;350
2948;454.4;0.0198;0.00477;0.000149;0.5483636;350
2950;454.4;0.0198;0.00477;0.000149;0.5483636;350
2952;454.3;0.0198;0.00478;0.000149;0.5483636;350
2954;454.3;0.0198;0.00477;0.000149;0.5483636;350
2956;454.2;0.0198;0.00478;0.000149;0.546;350
2958;454.2;0.0198;0.00477;0.000149;0.5483636;350
2960;454.1;0.0198;0.00478;0.000149;0.546;350
2962;454.1;0.0198;0.00478;0.000149;0.546;350
2964;454;0.0198;0.00478;0.000149;0.546;350
2966;454;0.0198;0.00478;0.000149;0.546;350
2968;454;0.0198;0.00478;0.000149;0.5507273;350
2970;454;0.0198;0.00478;0.000149;0.5507273;350
2972;454;0.0198;0.00477;0.000149;0.5507273;350
2974;454;0.0198;0.00478;0.000149;0.5483636;350
2976;454;0.0198;0.00477;0.000149;0.5483636;350
2978;454;0.0198;0.00478;0.000149;0.5483636;350
2980;454.1;0.0198;0.00478;0.000149;0.546;350
2982;454;0.0198;0.00477;0.000149;0.546;350
2984;453.9;0.0198;0.00478;0.000149;0.5483636;315
2986;453.9;0.0198;0.00478;0.000149;0.5507273;308
2988;453.8;0.0198;0.00478;0.000149;0.5507273;301
2990;454;0.0198;0.00477;0.000149;0.5483636;301
2992;453.8;0.0198;0.00477;0.000149;0.5483636;301
2994;453.9;0.0198;0.00477;0.000149;0.5507273;329
2996;453.9;0.0198;0.00478;0.000149;0.5507273;329
2998;453.7;0.0198;0.00478;0.000149;0.546;343
3000;453.7;0.0198;0.00478;0.000149;0.546;343
3002;453.6;0.0198;0.00478;0.000149;0.546;343
3004;453.7;0.0198;0.00477;0.000149;0.5483636;350
3006;453.6;0.0198;0.00478;0.000149;0.5507273;350
3008;453.7;0.0198;0.00478;0.000149;0.5507273;350
3010;453.7;0.0198;0.00477;0.000149;0.5507273;350
3012;453.7;0.0198;0.00478;0.000149;0.5483636;350
3014;453.6;0.0198;0.00478;0.000149;0.546;350
3016;453.6;0.0198;0.00478;0.000149;0.546;350
3018;453.5;0.0198;0.00478;0.000149;0.5436364;350
3020;453.4;0.0198;0.00477;0.000149;0.546;350
3022;453.3;0.0198;0.00478;0.000149;0.546;350
3024;453.3;0.0198;0.00477;0.000149;0.5483636;350
3026;453.4;0.0198;0.00478;0.000149;0.546;350
3028;453.3;0.0198;0.00477;0.000149;0.546;350
3030;453.3;0.0198;0.00478;0.000149;0.546;350
3032;453.3;0.0198;0.00478;0.000149;0.5436364;350
3034;453.2;0.0198;0.00478;0.000149;0.5483636;350
3036;453.2;0.0198;0.00478;0.000149;0.5483636;350
3038;453.2;0.0198;0.00477;0.000149;0.5507273;350
3040;453.3;0.0198;0.00478;0.000149;0.5483636;350
3042;453.2;0.0198;0.00477;0.000149;0.5483636;350
3044;453.2;0.0198;0.00479;0.000150;0.546;350
3046;453.2;0.0198;0.00478;0.000149;0.546;350
3048;453.1;0.0198;0.00478;0.000149;0.5436364;329
3050;453;0.0198;0.00478;0.000149;0.5436364;301
3052;452.9;0.0198;0.00478;0.000149;0.546;301
3054;452.9;0.0198;0.00478;0.000149;0.546;266
3056;452.9;0.0198;0.00478;0.000149;0.5483636;238
3058;453;0.0198;0.00478;0.000149;0.546;252
3060;453;0.0198;0.00478;0.000149;0.546;280
3062;452.9;0.0198;0.00478;0.000149;0.546;280
3064;452.9;0.0198;0.00478;0.000149;0.5436364;315
3066;452.8;0.0198;0.00478;0.000149;0.5436364;343
3068;452.8;0.0198;0.00478;0.000149;0.5436364;350
3070;452.8;0.0198;0.00478;0.000149;0.546;350
3072;452.8;0.0198;0.00477;0.000149;0.546;350
3074;452.8;0.0198;0.00478;0.000149;0.5483636;350
3076;452.8;0.0198;0.00477;0.000149;0.5483636;350
3078;452.8;0.0198;0.00478;0.000149;0.546;350
3080;452.7;0.0198;0.00478;0.000149;0.5436364;350
3082;452.5;0.0198;0.00478;0.000149;0.5412727;350
3084;452.5;0.0198;0.00477;0.000149;0.546;350
3086;452.6;0.0198;0.00478;0.000149;0.546;350
3088;452.6;0.0198;0.00477;0.000149;0.546;350
3090;452.6;0.0198;0.00478;0.000149;0.5436364;350
3092;452.6;0.0198;0.00478;0.000149;0.5436364;350
3094;452.5;0.0198;0.00478;0.000149;0.5436364;350
3096;452.5;0.0198;0.00477;0.000149;0.5436364;350
3098;452.4;0.0198;0.00478;0.000149;0.546;350
3100;452.4;0.0198;0.00477;0.000149;0.5436364;350
3102;452.4;0.0198;0.00478;0.000149;0.546;350
3104;452.4;0.0198;0.00478;0.000149;0.546;350
3106;452.4;0.0198;0.00478;0.000149;0.5436364;350
3108;452.4;0.0198;0.00478;0.000149;0.5436364;350
3110;452.4;0.0198;0.00477;0.000149;0.5412727;350
3112;452.3;0.0198;0.00478;0.000149;0.546;350
3114;452.3;0.0198;0.00477;0.000149;0.546;350
3116;452.3;0.0198;0.00477;0.000149;0.546;350
3118;452.3;0.0198;0.00477;0.000149;0.546;350
3120;452.4;0.0198;0.00478;0.000149;0.5436364;350
3122;452.3;0.0198;0.00478;0.000149;0.5436364;350
3124;452.2;0.0198;0.00478;0.000149;0.5412727;350
3126;452.2;0.0198;0.00477;0.000149;0.5436364;350
3128;452.2;0.0198;0.00478;0.000149;0.5436364;350
3130;452.1;0.0198;0.00477;0.000149;0.546;350
3132;452.1;0.0198;0.00477;0.000149;0.546;350
3134;452.2;0.0198;0.00477;0.000149;0.546;343
3136;452.2;0.0198;0.00478;0.000149;0.5436364;343
3138;452.1;0.0198;0.00478;0.000149;0.5412727;322
3140;452.1;0.0198;0.00478;0.000149;0.5412727;294
3142;452;0.0198;0.00478;0.000149;0.5412727;287
3144;452;0.0198;0.00478;0.000149;0.5436364;252
3146;452;0.0198;0.00478;0.000149;0.5436364;231
3148;452;0.0198;0.00477;0.000149;0.5436364;238
3150;452;0.0198;0.00478;0.000149;0.5436364;224
3152;452;0.0198;0.00477;0.000149;0.5412727;217
3154;451.9;0.0198;0.00478;0.000149;0.5412727;238
3156;451.9;0.0198;0.00478;0.000149;0.5412727;238
3158;451.9;0.0198;0.00477;0.000149;0.546;245
3160;451.9;0.0198;0.00478;0.000149;0.5436364;287
3162;451.9;0.0198;0.00477;0.000149;0.5436364;301
3164;451.9;0.0198;0.00478;0.000149;0.5436364;322
3166;451.9;0.0198;0.00477;0.000149;0.5412727;350
3168;451.8;0.0198;0.00477;0.000149;0.5412727;350
3170;451.8;0.0198;0.00478;0.000149;0.5389091;350
3172;451.7;0.0198;0.00477;0.000149;0.5436364;350
3174;451.7;0.0198;0.00478;0.000149;0.5436364;350
3176;451.7;0.0198;0.00478;0.000149;0.5436364;350
3178;451.7;0.0198;0.00478;0.000149;0.5412727;350
3180;451.7;0.0198;0.00478;0.000149;0.5412727;350
3182;451.7;0.0198;0.00477;0.000149;0.5412727;350
3184;451.6;0.0198;0.00477;0.000149;0.5389091;350
3186;451.6;0.0198;0.00477;0.000149;0.5436364;350
3188;451.6;0.0198;0.00478;0.000149;0.5412727;350
3190;451.6;0.0198;0.00477;0.000149;0.5412727;350
3192;451.6;0.0198;0.00478;0.000149;0.5412727;350
3194;451.5;0.0198;0.00477;0.000149;0.5389091;350
3196;451.5;0.0198;0.00477;0.000149;0.5389091;350
3198;451.5;0.0198;0.00478;0.000149;0.5389091;350
3200;451.5;0.0198;0.00477;0.000149;0.5436364;350
3202;451.5;0.0198;0.00477;0.000149;0.5436364;350
3204;451.5;0.0198;0.00477;0.000149;0.5436364;350
3206;451.5;0.0198;0.00477;0.000149;0.5412727;350
3208;451.4;0.0198;0.00477;0.000149;0.5389091;350
3210;451.4;0.0198;0.00477;0.000149;0.5389091;350
3212;451.4;0.0198;0.00477;0.000149;0.5365455;350
3214;451.3;0.0198;0.00477;0.000149;0.5389091;350
3216;451.3;0.0198;0.00477;0.000149;0.5412727;350
3218;451.3;0.0198;0.00477;0.000149;0.5436364;350
3220;451.3;0.0198;0.00477;0.000149;0.5412727;350
3222;451.3;0.0198;0.00477;0.000149;0.5412727;350
3224;451.3;0.0198;0.00477;0.000149;0.5389091;350
3226;451.3;0.0198;0.00477;0.000149;0.5389091;350
3228;451.3;0.0198;0.00477;0.000149;0.5389091;350
3230;451.2;0.0198;0.00477;0.000149;0.5365455;350
3232;451.2;0.0198;0.00477;0.000149;0.5412727;350
3234;451.2;0.0198;0.00477;0.000149;0.5412727;350
3236;451.2;0.0198;0.00477;0.000149;0.5389091;350
3238;451.2;0.0198;0.00477;0.000149;0.5389091;350
3240;451.2;0.0198;0.00477;0.000149;0.5365455;350
3242;451.1;0.0198;0.00477;0.000149;0.5389091;350
3244;451.1;0.0198;0.00477;0.000149;0.5389091;350
3246;451.1;0.0198;0.00477;0.000149;0.5412727;350
3248;451.1;0.0198;0.00477;0.000149;0.5412727;350
3250;451.1;0.0198;0.00477;0.000149;0.5412727;350
3252;451.2;0.0198;0.00477;0.000149;0.5389091;350
3254;451.1;0.0198;0.00477;0.000149;0.5365455;350
3256;451.1;0.0198;0.00477;0.000149;0.5365455;350
3258;451;0.0198;0.00477;0.000149;0.5341818;350
3260;450.9;0.0198;0.00477;0.000149;0.5389091;350
3262;450.9;0.0198;0.00477;0.000149;0.5389091;350
3264;450.9;0.0198;0.00477;0.000149;0.5412727;350
3266;451;0.0198;0.00477;0.000149;0.5412727;350
3268;451;0.0198;0.00477;0.000149;0.5389091;350
3270;451;0.0198;0.00477;0.000149;0.5389091;350
3272;450.9;0.0198;0.00477;0.000149;0.5341818;350
3274;450.9;0.0198;0.00477;0.000149;0.5389091;350
3276;450.9;0.0198;0.00477;0.000149;0.5389091;350
3278;450.9;0.0198;0.00477;0.000149;0.5389091;350
3280;450.9;0.0198;0.00477;0.000149;0.5389091;350
3282;450.9;0.0198;0.00477;0.000149;0.5365455;350
3284;450.8;0.0198;0.00477;0.000149;0.5365455;350
3286;450.8;0.0198;0.00477;0.000149;0.5341818;350
3288;450.7;0.0198;0.00477;0.000149;0.5389091;350
3290;450.7;0.0198;0.00477;0.000149;0.5389091;350
3292;450.7;0.0198;0.00477;0.000149;0.5389091;350
3294;450.8;0.0198;0.00477;0.000149;0.5365455;350
3296;450.8;0.0198;0.00477;0.000149;0.5341818;350
3298;450.7;0.0198;0.00477;0.000149;0.5341818;350
3300;450.7;0.0198;0.00477;0.000149;0.5365455;350
3302;450.7;0.0198;0.00477;0.000149;0.5389091;350
3304;450.7;0.0198;0.00477;0.000149;0.5389091;350
3306;450.7;0.0198;0.00477;0.000149;0.5365455;350
3308;450.7;0.0198;0.00477;0.000149;0.5365455;350
3310;450.7;0.0198;0.00477;0.000149;0.5365455;350
3312;450.7;0.0198;0.00477;0.000149;0.5389091;350
3314;450.7;0.0198;0.00477;0.000149;0.5365455;350
3316;450.6;0.0198;0.00477;0.000149;0.5389091;350
3318;450.6;0.0198;0.00477;0.000149;0.5341818;350
3320;450.6;0.0198;0.00477;0.000149;0.5341818;350
3322;450.6;0.0198;0.00477;0.000149;0.5341818;350
3324;450.6;0.0198;0.00477;0.000149;0.5341818;350
3326;450.5;0.0198;0.00477;0.000149;0.5341818;343
3328;450.5;0.0198;0.00477;0.000149;0.5341818;336
3330;450.5;0.0198;0.00477;0.000149;0.5365455;308
3332;450.5;0.0198;0.00477;0.000149;0.5341818;266
3334;450.5;0.0198;0.00477;0.000149;0.5365455;266
3336;450.5;0.0198;0.00477;0.000149;0.5341818;238
3338;450.5;0.0198;0.00477;0.000149;0.5365455;210
3340;450.5;0.0198;0.00477;0.000149;0.5365455;231
3342;450.5;0.0198;0.00477;0.000149;0.5365455;238
3344;450.5;0.0198;0.00477;0.000149;0.5365455;224
3346;450.5;0.0198;0.00477;0.000149;0.5341818;259
3348;450.5;0.0198;0.00477;0.000149;0.5341818;301
3350;450.5;0.0198;0.00477;0.000149;0.5341818;301
3352;450.4;0.0198;0.00477;0.000149;0.5318182;336
3354;450.4;0.0198;0.00477;0.000149;0.5341818;350
3356;450.4;0.0198;0.00477;0.000149;0.5341818;350
3358;450.4;0.0198;0.00477;0.000149;0.5389091;350
3360;450.4;0.0198;0.00477;0.000149;0.5365455;350
3362;450.5;0.0198;0.00477;0.000149;0.5365455;350
3364;450.5;0.0198;0.00477;0.000149;0.5341818;350
3366;450.5;0.0198;0.00477;0.000149;0.5318182;350
3368;450.4;0.0198;0.00477;0.000149;0.5318182;350
3370;450.4;0.0198;0.00477;0.000149;0.5318182;350
3372;450.4;0.0198;0.00477;0.000149;0.5365455;350
3374;450.4;0.0198;0.00477;0.000149;0.5341818;350
3376;450.4;0.0198;0.00477;0.000149;0.5341818;350
3378;450.4;0.0198;0.00477;0.000149;0.5318182;350
3380;450.4;0.0198;0.00477;0.000149;0.5341818;350
3382;450.4;0.0198;0.00477;0.000149;0.5365455;350
3384;450.4;0.0198;0.00477;0.000149;0.5365455;350
3386;450.4;0.0198;0.00477;0.000149;0.5365455;350
3388;450.4;0.0198;0.00477;0.000149;0.5341818;350
3390;450.5;0.0198;0.00477;0.000149;0.5341818;350
3392;450.4;0.0198;0.00477;0.000149;0.5318182;350
3394;450.4;0.0198;0.00477;0.000149;0.5318182;350
3396;450.3;0.0198;0.00477;0.000149;0.5341818;350
3398;450.3;0.0198;0.00477;0.000149;0.5341818;350
3400;450.4;0.0198;0.00477;0.000149;0.5365455;350
3402;450.4;0.0198;0.00477;0.000149;0.5341818;350
3404;450.4;0.0198;0.00477;0.000149;0.5341818;350
3406;450.4;0.0198;0.00477;0.000149;0.5318182;350
3408;450.3;0.0198;0.00477;0.000149;0.5318182;350
3410;450.3;0.0198;0.00477;0.000149;0.5294545;350
3412;450.2;0.0198;0.00477;0.000149;0.5294545;350
3414;450.2;0.0198;0.00477;0.000149;0.5341818;350
3416;450.2;0.0198;0.00477;0.000149;0.5341818;350
3418;450.3;0.0198;0.00477;0.000149;0.5365455;350
3420;450.3;0.0198;0.00477;0.000149;0.5318182;350
3422;450.3;0.0198;0.00477;0.000149;0.5318182;350
3424;450.2;0.0198;0.00477;0.000149;0.5318182;350
3426;450.2;0.0198;0.00477;0.000149;0.5341818;350
3428;450.2;0.0198;0.00477;0.000149;0.5341818;350
3430;450.2;0.0198;0.00477;0.000149;0.5318182;350
3432;450.2;0.0198;0.00477;0.000149;0.5341818;350
3434;450.2;0.0198;0.00477;0.000149;0.5318182;350
3436;450.2;0.0198;0.00477;0.000149;0.5318182;350
3438;450.2;0.0198;0.00477;0.000149;0.5294545;350
3440;450.1;0.0198;0.00477;0.000149;0.5294545;350
3442;450.1;0.0198;0.00477;0.000149;0.5294545;350
3444;450.1;0.0198;0.00477;0.000149;0.5318182;350
3446;450.1;0.0198;0.00477;0.000149;0.5365455;350
3448;450.2;0.0198;0.00477;0.000149;0.5341818;350
3450;450.2;0.0198;0.00477;0.000149;0.5341818;350
3452;450.2;0.0198;0.00477;0.000149;0.5318182;350
3454;450.2;0.0198;0.00477;0.000149;0.5294545;350
3456;450.1;0.0198;0.00477;0.000149;0.5318182;350
3458;450.1;0.0198;0.00477;0.000149;0.5318182;350
3460;450.1;0.0198;0.00477;0.000149;0.5341818;350
3462;450.1;0.0198;0.00477;0.000149;0.5318182;350
3464;450.1;0.0198;0.00477;0.000149;0.5318182;350
3466;450;0.0198;0.00477;0.000149;0.5294545;350
3468;450;0.0198;0.00477;0.000149;0.5270909;350
3470;450;0.0198;0.00477;0.000149;0.5294545;350
3472;449.9;0.0198;0.00477;0.000149;0.5294545;350
3474;449.9;0.0198;0.00477;0.000149;0.5318182;350
3476;449.9;0.0198;0.00477;0.000149;0.5318182;350
3478;449.9;0.0198;0.00477;0.000149;0.5318182;350
3480;450;0.0198;0.00477;0.000149;0.5294545;350
3482;450;0.0198;0.00477;0.000149;0.5294545;350
3484;449.9;0.0198;0.00477;0.000149;0.5270909;350
3486;449.9;0.0198;0.00477;0.000149;0.5270909;350
3488;449.8;0.0198;0.00477;0.000149;0.5294545;350
3490;449.8;0.0198;0.00477;0.000149;0.5294545;350
3492;449.8;0.0198;0.00477;0.000149;0.5318182;350
3494;449.9;0.0198;0.00477;0.000149;0.5318182;350
3496;449.9;0.0198;0.00477;0.000149;0.5318182;350
3498;449.9;0.0198;0.00477;0.000149;0.5294545;350
3500;449.9;0.0198;0.00477;0.000149;0.5270909;350
3502;449.8;0.0198;0.00477;0.000149;0.5294545;350
3504;449.8;0.0198;0.00477;0.000149;0.5270909;350
3506;449.7;0.0198;0.00477;0.000149;0.5294545;308
3508;449.8;0.0198;0.00477;0.000149;0.5294545;301
3510;449.8;0.0198;0.00477;0.000149;0.5318182;273
3512;449.8;0.0198;0.00477;0.000149;0.5294545;238
3514;449.8;0.0198;0.00477;0.000149;0.5270909;231
3516;449.8;0.0198;0.00477;0.000149;0.5270909;238
3518;449.7;0.0198;0.00477;0.000149;0.5247273;217
3520;449.7;0.0198;0.00477;0.000149;0.5270909;231
3522;449.6;0.0198;0.00477;0.000149;0.5270909;252
3524;449.6;0.0198;0.00477;0.000149;0.5294545;259
3526;449.7;0.0198;0.00477;0.000149;0.5294545;294
3528;449.7;0.0198;0.00477;0.000149;0.5270909;329
3530;449.7;0.0198;0.00477;0.000149;0.5270909;336
3532;449.7;0.0198;0.00477;0.000149;0.5247273;350
3534;449.7;0.0198;0.00477;0.000149;0.5270909;350
3536;449.6;0.0198;0.00477;0.000149;0.5270909;350
3538;449.6;0.0198;0.00477;0.000149;0.5294545;350
3540;449.7;0.0198;0.00477;0.000149;0.5294545;350
3542;449.7;0.0198;0.00477;0.000149;0.5270909;350
3544;449.7;0.0198;0.00477;0.000149;0.5270909;350
3546;449.6;0.0198;0.00477;0.000149;0.5223636;350
3548;449.6;0.0198;0.00477;0.000149;0.5270909;350
3550;449.6;0.0198;0.00477;0.000149;0.5270909;350
3552;449.6;0.0198;0.00477;0.000149;0.5270909;350
3554;449.7;0.0198;0.00477;0.000149;0.5318182;350
3556;449.7;0.0198;0.00477;0.000149;0.5294545;350
3558;449.7;0.0198;0.00477;0.000149;0.5294545;350
3560;449.7;0.0198;0.00477;0.000149;0.5247273;350
3562;449.7;0.0198;0.00477;0.000149;0.5247273;350
3564;449.6;0.0198;0.00477;0.000149;0.5247273;350
3566;449.5;0.0198;0.00477;0.000149;0.5294545;350
3568;449.6;0.0198;0.00477;0.000149;0.5270909;350
3570;449.6;0.0198;0.00477;0.000149;0.5247273;350
3572;449.6;0.0198;0.00477;0.000149;0.5247273;350
3574;449.6;0.0198;0.00477;0.000149;0.5223636;350
3576;449.5;0.0198;0.00477;0.000149;0.5247273;350
3578;449.5;0.0198;0.00477;0.000149;0.5247273;350
3580;449.5;0.0198;0.00477;0.000149;0.5270909;350
3582;449.6;0.0198;0.00477;0.000149;0.5270909;350
3584;449.6;0.0198;0.00477;0.000149;0.5270909;350
3586;449.6;0.0198;0.00477;0.000149;0.5247273;350
3588;449.6;0.0198;0.00477;0.000149;0.5223636;350
3590;449.5;0.0198;0.00477;0.000149;0.5247273;350
3592;449.5;0.0198;0.00477;0.000149;0.5247273;350
3594;449.6;0.0198;0.00477;0.000149;0.5270909;350
3596;449.6;0.0198;0.00477;0.000149;0.5270909;350
3598;449.6;0.0198;0.00477;0.000149;0.5247273;350
3600;449.6;0.0198;0.00477;0.000149;0.5223636;350
3602;449.6;0.0198;0.00477;0.000149;0.5223636;350
3604;449.6;0.0198;0.00477;0.000149;0.5270909;350
3606;449.6;0.0198;0.00477;0.000149;0.5270909;350
3608;449.6;0.0198;0.00477;0.000149;0.5270909;350
3610;449.6;0.0198;0.00477;0.000149;0.5247273;350
3612;449.6;0.0198;0.00477;0.000149;0.5247273;350
3614;449.6;0.0198;0.00477;0.000149;0.5247273;350
3616;449.6;0.0198;0.00477;0.000149;0.5223636;350
3618;449.5;0.0198;0.00477;0.000149;0.5270909;350
3620;449.5;0.0198;0.00477;0.000149;0.5247273;350
3622;449.6;0.0198;0.00477;0.000149;0.5270909;350
3624;449.6;0.0198;0.00477;0.000149;0.5247273;350
3626;449.6;0.0198;0.00477;0.000149;0.5247273;350
3628;449.5;0.0198;0.00477;0.000149;0.5223636;350
3630;449.5;0.0198;0.00477;0.000149;0.52;350
3632;449.5;0.0198;0.00477;0.000149;0.5223636;350
3634;449.4;0.0198;0.00477;0.000149;0.5223636;350
3636;449.5;0.0198;0.00477;0.000149;0.5270909;350
3638;449.5;0.0198;0.00477;0.000149;0.5247273;350
3640;449.5;0.0198;0.00477;0.000149;0.5247273;329
3642;449.5;0.0198;0.00477;0.000149;0.5223636;308
3644;449.5;0.0198;0.00477;0.000149;0.52;273
3646;449.4;0.0198;0.00477;0.000149;0.5223636;259
3648;449.4;0.0198;0.00477;0.000149;0.5247273;231
3650;449.4;0.0198;0.00477;0.000149;0.5247273;217
3652;449.5;0.0198;0.00477;0.000149;0.5247273;238
3654;449.5;0.0198;0.00477;0.000149;0.5223636;231
3656;449.5;0.0198;0.00477;0.000149;0.5223636;238
3658;449.5;0.0198;0.00477;0.000149;0.5223636;266
3660;449.4;0.0198;0.00477;0.000149;0.5223636;301
3662;449.4;0.0198;0.00477;0.000149;0.52;308
3664;449.4;0.0198;0.00477;0.000149;0.5223636;343
3666;449.4;0.0198;0.00477;0.000149;0.52;350
3668;449.4;0.0198;0.00477;0.000149;0.5247273;350
3670;449.4;0.0198;0.00477;0.000149;0.5247273;350
3672;449.4;0.0198;0.00477;0.000149;0.5247273;350
3674;449.4;0.0198;0.00477;0.000149;0.5223636;350
3676;449.4;0.0198;0.00477;0.000149;0.52;350
3678;449.4;0.0198;0.00477;0.000149;0.52;350
3680;449.4;0.0198;0.00477;0.000149;0.5223636;350
3682;449.4;0.0198;0.00477;0.000149;0.5247273;350
3684;449.4;0.0198;0.00477;0.000149;0.5223636;350
3686;449.4;0.0198;0.00477;0.000149;0.5223636;350
3688;449.4;0.0198;0.00477;0.000149;0.52;350
3690;449.3;0.0198;0.00477;0.000149;0.52;350
3692;449.3;0.0198;0.00477;0.000149;0.52;350
3694;449.3;0.0198;0.00477;0.000149;0.52;350
3696;449.3;0.0198;0.00477;0.000149;0.5223636;350
3698;449.3;0.0198;0.00477;0.000149;0.52;350
3700;449.3;0.0198;0.00477;0.000149;0.52;350
3702;449.4;0.0198;0.00477;0.000149;0.52;350
3704;449.4;0.0198;0.00477;0.000149;0.5176364;350
3706;449.2;0.0198;0.00477;0.000149;0.5176364;350
3708;449.3;0.0198;0.00477;0.000149;0.52;350
3710;449.2;0.0198;0.00477;0.000149;0.5223636;350
3712;449.4;0.0198;0.00477;0.000149;0.5223636;350
3714;449.4;0.0198;0.00477;0.000149;0.5223636;350
3716;449.3;0.0198;0.00477;0.000149;0.52;350
3718;449.5;0.0198;0.00477;0.000149;0.52;350
3720;449.3;0.0198;0.00477;0.000149;0.52;350
3722;449.3;0.0198;0.00477;0.000149;0.5176364;350
3724;449.4;0.0198;0.00477;0.000149;0.52;350
3726;449.3;0.0198;0.00477;0.000149;0.5176364;350
3728;449.3;0.0198;0.00477;0.000149;0.52;350
3730;449.4;0.0198;0.00477;0.000149;0.52;350
3732;449.4;0.0198;0.00477;0.000149;0.5223636;350
3734;449.4;0.0198;0.00477;0.000149;0.5223636;350
3736;449.5;0.0198;0.00477;0.000149;0.5223636;350
3738;449.5;0.0198;0.00477;0.000149;0.5223636;350
3740;449.5;0.0198;0.00477;0.000149;0.5176364;350
3742;449.4;0.0198;0.00477;0.000149;0.5176364;350
3744;449.4;0.0198;0.00477;0.000149;0.5176364;350
3746;449.3;0.0198;0.00477;0.000149;0.5176364;350
3748;449.3;0.0198;0.00477;0.000149;0.52;350
3750;449.3;0.0198;0.00477;0.000149;0.52;350
3752;449.4;0.0198;0.00477;0.000149;0.5223636;350
3754;449.4;0.0198;0.00477;0.000149;0.52;350
3756;449.4;0.0198;0.00477;0.000149;0.52;350
3758;449.4;0.0198;0.00477;0.000149;0.52;350
3760;449.3;0.0198;0.00477;0.000149;0.5176364;350
3762;449.3;0.0198;0.00477;0.000149;0.5176364;350
3764;449.3;0.0198;0.00477;0.000149;0.5176364;350
3766;449.2;0.0198;0.00477;0.000149;0.52;350
3768;449.3;0.0198;0.00477;0.000149;0.52;350
3770;449.3;0.0198;0.00477;0.000149;0.52;350
3772;449.3;0.0198;0.00477;0.000149;0.5176364;350
3774;449.3;0.0198;0.00477;0.000149;0.5176364;350
3776;449.3;0.0198;0.00477;0.000149;0.5176364;350
3778;449.3;0.0198;0.00477;0.000149;0.5152727;350
3780;449.2;0.0198;0.00477;0.000149;0.5152727;350
3782;449.2;0.0198;0.00477;0.000149;0.5176364;350
3784;449.1;0.0198;0.00477;0.000149;0.52;350
3786;449.3;0.0198;0.00477;0.000149;0.5176364;350
3788;449.3;0.0198;0.00477;0.000149;0.5176364;350
3790;449.3;0.0198;0.00477;0.000149;0.5176364;336
3792;449.3;0.0198;0.00477;0.000149;0.5152727;315
3794;449.3;0.0198;0.00477;0.000149;0.5176364;280
3796;449.2;0.0198;0.00477;0.000149;0.5176364;266
3798;449.3;0.0198;0.00477;0.000149;0.5176364;238
3800;449.2;0.0198;0.00477;0.000149;0.5176364;224
3802;449.3;0.0198;0.00477;0.000149;0.5176364;231
3804;449.3;0.0198;0.00477;0.000149;0.5176364;231
3806;449.3;0.0198;0.00477;0.000149;0.5176364;245
3808;449.3;0.0198;0.00477;0.000149;0.5176364;273
3810;449.3;0.0198;0.00477;0.000149;0.5152727;308
3812;449.3;0.0198;0.00477;0.000149;0.5176364;322
3814;449.2;0.0198;0.00477;0.000149;0.5129091;350
3816;449.2;0.0198;0.00477;0.000149;0.5129091;350
3818;449.2;0.0198;0.00477;0.000149;0.5152727;350
3820;449.2;0.0198;0.00477;0.000149;0.5176364;350
3822;449.2;0.0198;0.00477;0.000149;0.5176364;350
3824;449.2;0.0198;0.00477;0.000149;0.5152727;350
3826;449.2;0.0198;0.00477;0.000149;0.5176364;350
3828;449.2;0.0198;0.00477;0.000149;0.5129091;350
3830;449.2;0.0198;0.00477;0.000149;0.5129091;350
3832;449.1;0.0198;0.00477;0.000149;0.5152727;350
3834;449.1;0.0198;0.00477;0.000149;0.5176364;350
3836;449.2;0.0198;0.00477;0.000149;0.5176364;350
3838;449.2;0.0198;0.00477;0.000149;0.5176364;350
3840;449.2;0.0198;0.00477;0.000149;0.5152727;350
3842;449.2;0.0198;0.00477;0.000149;0.5129091;350
3844;449.1;0.0198;0.00477;0.000149;0.5129091;350
3846;449;0.0198;0.00477;0.000149;0.5152727;350
3848;449;0.0198;0.00477;0.000149;0.5176364;350
3850;449;0.0198;0.00477;0.000149;0.5176364;350
3852;449.1;0.0198;0.00477;0.000149;0.5129091;350
3854;449;0.0198;0.00477;0.000149;0.5129091;350
3856;449;0.0198;0.00477;0.000149;0.5105455;350
3858;449;0.0198;0.00477;0.000149;0.5152727;350
3860;449;0.0198;0.00477;0.000149;0.5152727;350
3862;449;0.0198;0.00477;0.000149;0.5152727;350
3864;449;0.0198;0.00477;0.000149;0.5152727;350
3866;449;0.0198;0.00477;0.000149;0.5129091;350
3868;449;0.0198;0.00477;0.000149;0.5129091;350
3870;448.9;0.0198;0.00477;0.000149;0.5081818;350
3872;448.9;0.0198;0.00477;0.000149;0.5129091;350
3874;448.9;0.0198;0.00477;0.000149;0.5129091;350
3876;448.9;0.0198;0.00477;0.000149;0.5152727;350
3878;448.9;0.0198;0.00477;0.000149;0.5152727;350
3880;448.9;0.0198;0.00477;0.000149;0.5129091;350
3882;448.9;0.0198;0.00477;0.000149;0.5129091;350
3884;448.9;0.0198;0.00477;0.000149;0.5129091;350
3886;448.9;0.0198;0.00477;0.000149;0.5152727;350
3888;448.9;0.0198;0.00477;0.000149;0.5152727;350
3890;448.9;0.0198;0.00477;0.000149;0.5129091;350
3892;448.9;0.0198;0.00477;0.000149;0.5105455;350
3894;448.9;0.0198;0.00477;0.000149;0.5105455;350
3896;448.9;0.0198;0.00477;0.000149;0.5105455;350
3898;448.8;0.0198;0.00477;0.000149;0.5105455;350
3900;448.8;0.0198;0.00477;0.000149;0.5129091;350
3902;448.8;0.0198;0.00477;0.000149;0.5129091;350
3904;448.8;0.0198;0.00477;0.000149;0.5129091;350
3906;448.8;0.0198;0.00477;0.000149;0.5105455;350
3908;448.8;0.0198;0.00477;0.000149;0.5081818;350
3910;448.8;0.0198;0.00477;0.000149;0.5105455;350
3912;448.8;0.0198;0.00477;0.000149;0.5105455;350
3914;448.8;0.0198;0.00477;0.000149;0.5129091;350
3916;448.8;0.0198;0.00477;0.000149;0.5105455;350
3918;448.8;0.0198;0.00477;0.000149;0.5129091;350
3920;448.8;0.0198;0.00477;0.000149;0.5105455;350
3922;448.8;0.0198;0.00477;0.000149;0.5081818;350
3924;448.8;0.0198;0.00477;0.000149;0.5105455;350
3926;448.8;0.0198;0.00477;0.000149;0.5105455;350
3928;448.8;0.0198;0.00477;0.000149;0.5105455;350
3930;448.7;0.0198;0.00477;0.000149;0.5081818;350
3932;448.7;0.0198;0.00477;0.000149;0.5105455;350
3934;448.7;0.0198;0.00477;0.000149;0.5081818;329
3936;448.7;0.0198;0.00477;0.000149;0.5081818;315
3938;448.7;0.0198;0.00477;0.000149;0.5105455;273
3940;448.8;0.0198;0.00477;0.000149;0.5105455;259
3942;448.8;0.0198;0.00477;0.000149;0.5129091;238
3944;448.8;0.0198;0.00477;0.000149;0.5105455;224
3946;448.8;0.0198;0.00477;0.000149;0.5105455;224
3948;448.8;0.0198;0.00477;0.000149;0.5081818;238
3950;448.8;0.0198;0.00477;0.000149;0.5081818;217
3952;448.8;0.0198;0.00477;0.000149;0.5081818;238
3954;448.7;0.0198;0.00477;0.000149;0.5058182;273
3956;448.7;0.0198;0.00477;0.000149;0.5105455;287
3958;448.7;0.0198;0.00477;0.000149;0.5081818;315
3960;448.8;0.0198;0.00477;0.000149;0.5105455;350
3962;448.8;0.0198;0.00477;0.000149;0.5081818;350
3964;448.8;0.0198;0.00477;0.000149;0.5081818;350
3966;448.8;0.0198;0.00477;0.000149;0.5058182;350
3968;448.7;0.0198;0.00477;0.000149;0.5081818;350
3970;448.7;0.0198;0.00477;0.000149;0.5105455;350
3972;448.8;0.0198;0.00477;0.000149;0.5105455;350
3974;448.8;0.0198;0.00477;0.000149;0.5105455;350
3976;448.8;0.0198;0.00477;0.000149;0.5058182;350
3978;448.8;0.0198;0.00477;0.000149;0.5058182;350
3980;448.8;0.0198;0.00477;0.000149;0.5081818;350
3982;448.8;0.0198;0.00477;0.000149;0.5081818;350
3984;448.8;0.0198;0.00477;0.000149;0.5081818;350
3986;448.8;0.0198;0.00477;0.000149;0.5081818;350
3988;448.8;0.0198;0.00477;0.000149;0.5081818;350
3990;448.7;0.0198;0.00477;0.000149;0.5058182;350
3992;448.7;0.0198;0.00477;0.000149;0.5081818;350
3994;448.7;0.0198;0.00477;0.000149;0.5105455;350
3996;448.7;0.0198;0.00477;0.000149;0.5081818;350
3998;448.8;0.0198;0.00477;0.000149;0.5081818;350
4000;448.8;0.0198;0.00477;0.000149;0.5058182;350
4002;448.7;0.0198;0.00477;0.000149;0.5058182;350
4004;448.7;0.0198;0.00477;0.000149;0.5034545;350
4006;448.7;0.0198;0.00477;0.000149;0.5058182;350
4008;448.7;0.0198;0.00477;0.000149;0.5081818;350
4010;448.7;0.0198;0.00477;0.000149;0.5081818;350
4012;448.8;0.0198;0.00477;0.000149;0.5081818;350
4014;448.8;0.0198;0.00477;0.000149;0.5058182;350
4016;448.8;0.0198;0.00477;0.000149;0.5058182;350
4018;448.8;0.0198;0.00477;0.000149;0.5034545;350
4020;448.8;0.0198;0.00477;0.000149;0.5058182;350
4022;448.7;0.0198;0.00477;0.000149;0.5081818;350
4024;448.8;0.0198;0.00477;0.000149;0.5105455;350
4026;448.8;0.0198;0.00477;0.000149;0.5081818;350
4028;448.8;0.0198;0.00477;0.000149;0.5058182;350
4030;448.8;0.0198;0.00477;0.000149;0.5058182;350
4032;448.8;0.0198;0.00477;0.000149;0.5034545;350
4034;448.7;0.0198;0.00477;0.000149;0.5081818;350
4036;448.8;0.0198;0.00477;0.000149;0.5058182;350
4038;448.8;0.0198;0.00477;0.000149;0.5081818;350
4040;448.8;0.0198;0.00477;0.000149;0.5081818;350
4042;448.8;0.0198;0.00477;0.000149;0.5081818;350
4044;448.8;0.0198;0.00477;0.000149;0.5058182;350
4046;448.8;0.0198;0.00477;0.000149;0.5034545;350
4048;448.8;0.0198;0.00477;0.000149;0.5034545;350
4050;448.8;0.0198;0.00477;0.000149;0.5034545;350
4052;448.7;0.0198;0.00477;0.000149;0.5058182;350
4054;448.7;0.0198;0.00477;0.000149;0.5058182;350
4056;448.7;0.0198;0.00477;0.000149;0.5034545;350
4058;448.7;0.0198;0.00477;0.000149;0.5034545;350
4060;448.7;0.0198;0.00477;0.000149;0.5058182;350
4062;448.7;0.0198;0.00477;0.000149;0.5081818;350
4064;448.8;0.0198;0.00477;0.000149;0.5058182;350
4066;448.8;0.0198;0.00477;0.000149;0.5034545;350
4068;448.8;0.0198;0.00477;0.000149;0.5034545;350
4070;448.7;0.0198;0.00477;0.000149;0.5034545;308
4072;448.7;0.0198;0.00477;0.000149;0.5058182;294
4074;448.7;0.0198;0.00477;0.000149;0.5058182;273
4076;448.8;0.0198;0.00477;0.000149;0.5058182;231
4078;448.8;0.0198;0.00477;0.000149;0.5010909;224
4080;448.7;0.0198;0.00477;0.000149;0.5034545;238
4082;448.7;0.0198;0.00477;0.000149;0.5034545;217
4084;448.7;0.0198;0.00477;0.000149;0.5058182;224
4086;448.7;0.0198;0.00477;0.000149;0.5058182;238
4088;448.8;0.0198;0.00477;0.000149;0.5034545;252
4090;448.8;0.0198;0.00477;0.000149;0.5034545;273
4092;448.7;0.0198;0.00477;0.000149;0.5010909;315
4094;448.7;0.0198;0.00477;0.000149;0.5010909;315
4096;448.7;0.0198;0.00477;0.000149;0.5034545;350
4098;448.7;0.0198;0.00477;0.000149;0.5058182;350
4100;448.8;0.0198;0.00477;0.000149;0.5058182;350
4102;448.8;0.0198;0.00477;0.000149;0.5034545;350
4104;448.8;0.0198;0.00477;0.000149;0.5034545;350
4106;448.7;0.0198;0.00477;0.000149;0.4987273;350
4108;448.7;0.0198;0.00477;0.000149;0.4987273;350
4110;448.6;0.0198;0.00477;0.000149;0.5010909;350
4112;448.6;0.0198;0.00477;0.000149;0.5034545;350
4114;448.6;0.0198;0.00477;0.000149;0.5034545;350
4116;448.6;0.0198;0.00477;0.000149;0.5010909;350
4118;448.5;0.0198;0.00477;0.000149;0.5010909;350
4120;448.5;0.0198;0.00477;0.000149;0.4987273;350
4122;448.5;0.0198;0.00477;0.000149;0.5010909;350
4124;448.4;0.0198;0.00477;0.000149;0.4987273;350
4126;448.4;0.0198;0.00477;0.000149;0.5010909;350
4128;448.3;0.0198;0.00477;0.000149;0.5010909;350
4130;448.3;0.0198;0.00477;0.000149;0.5010909;350
4132;448.3;0.0198;0.00477;0.000149;0.5058182;350
4134;448.3;0.0198;0.00477;0.000149;0.5010909;350
4136;448.3;0.0198;0.00477;0.000149;0.5010909;350
4138;448.2;0.0198;0.00477;0.000149;0.4963636;350
4140;448.1;0.0198;0.00477;0.000149;0.4963636;350
4142;448;0.0198;0.00477;0.000149;0.4987273;350
4144;448;0.0198;0.00477;0.000149;0.5010909;350
4146;448;0.0198;0.00477;0.000149;0.4987273;350
4148;448;0.0198;0.00477;0.000149;0.4963636;350
4150;448;0.0198;0.00477;0.000149;0.4987273;350
4152;447.9;0.0198;0.00477;0.000149;0.494;350
4154;447.9;0.0198;0.00477;0.000149;0.494;350
4156;447.8;0.0198;0.00477;0.000149;0.494;350
4158;447.8;0.0198;0.00477;0.000149;0.4963636;350
4160;447.8;0.0198;0.00477;0.000149;0.4963636;350
4162;447.8;0.0198;0.00477;0.000149;0.494;350
4164;447.8;0.0198;0.00477;0.000149;0.4963636;350
4166;447.8;0.0198;0.00477;0.000149;0.4916364;350
4168;447.8;0.0198;0.00477;0.000149;0.494;350
4170;447.8;0.0198;0.00477;0.000149;0.4963636;350
4172;447.8;0.0198;0.00477;0.000149;0.4963636;350
4174;447.9;0.0198;0.00477;0.000149;0.4963636;350
4176;447.9;0.0198;0.00477;0.000149;0.4963636;350
4178;447.9;0.0198;0.00477;0.000149;0.4963636;350
4180;447.9;0.0198;0.00477;0.000149;0.494;350
4182;447.8;0.0198;0.00477;0.000149;0.494;350
4184;447.8;0.0198;0.00477;0.000149;0.4916364;350
4186;447.8;0.0198;0.00477;0.000149;0.4916364;350
4188;447.7;0.0198;0.00477;0.000149;0.4916364;350
4190;447.7;0.0198;0.00477;0.000149;0.494;350
4192;447.8;0.0198;0.00477;0.000149;0.4963636;350
4194;447.8;0.0198;0.00477;0.000149;0.494;350
4196;447.9;0.0198;0.00477;0.000149;0.4963636;350
4198;447.9;0.0198;0.00477;0.000149;0.494;350
4200;447.9;0.0198;0.00477;0.000149;0.494;350
4202;447.9;0.0198;0.00477;0.000149;0.4916364;350
4204;447.8;0.0198;0.00477;0.000149;0.4892727;350
4206;447.8;0.0198;0.00477;0.000149;0.494;350
4208;447.8;0.0198;0.00477;0.000149;0.494;350
4210;447.9;0.0198;0.00477;0.000149;0.4963636;350
4212;447.9;0.0198;0.00477;0.000149;0.494;350
4214;448;0.0198;0.00477;0.000149;0.494;350
4216;448;0.0198;0.00477;0.000149;0.494;350
4218;448;0.0198;0.00477;0.000149;0.4916364;350
4220;447.9;0.0198;0.00477;0.000149;0.4916364;350
4222;448;0.0198;0.00477;0.000149;0.494;350
4224;448;0.0198;0.00477;0.000149;0.4963636;350
4226;448.1;0.0198;0.00477;0.000149;0.4963636;350
4228;448.1;0.0198;0.00477;0.000149;0.4963636;350
4230;448.1;0.0198;0.00477;0.000149;0.494;350
4232;448.1;0.0198;0.00477;0.000149;0.4916364;350
4234;448.1;0.0198;0.00477;0.000149;0.4916364;350
4236;448.1;0.0198;0.00477;0.000149;0.4892727;350
4238;448;0.0198;0.00477;0.000149;0.494;350
4240;448.1;0.0198;0.00477;0.000149;0.494;350
4242;448.1;0.0198;0.00477;0.000149;0.494;350
4244;448.2;0.0198;0.00477;0.000149;0.494;350
4246;448.2;0.0198;0.00477;0.000149;0.494;350
4248;448.3;0.0198;0.00477;0.000149;0.4916364;350
4250;448.2;0.0198;0.00477;0.000149;0.4916364;315
4252;448.2;0.0198;0.00477;0.000149;0.4916364;301
4254;448.3;0.0198;0.00477;0.000149;0.4916364;273
4256;448.2;0.0198;0.00477;0.000149;0.494;238
4258;448.3;0.0198;0.00477;0.000149;0.4916364;224
4260;448.3;0.0198;0.00477;0.000149;0.4916364;231
4262;448.3;0.0198;0.00477;0.000149;0.4916364;238
4264;448.2;0.0198;0.00477;0.000149;0.4892727;259
4266;448.2;0.0198;0.00477;0.000149;0.494;294
4268;448.3;0.0198;0.00477;0.000149;0.494;308
4270;448.3;0.0198;0.00477;0.000149;0.494;336
4272;448.4;0.0198;0.00477;0.000149;0.4916364;350
4274;448.4;0.0198;0.00477;0.000149;0.494;350
4276;448.5;0.0198;0.00477;0.000149;0.4916364;350
4278;448.4;0.0198;0.00477;0.000149;0.4892727;350
4280;448.5;0.0198;0.00477;0.000149;0.4916364;350
4282;448.4;0.0198;0.00477;0.000149;0.4916364;350
4284;448.5;0.0198;0.00477;0.000149;0.494;350
4286;448.6;0.0198;0.00477;0.000149;0.494;350
4288;448.6;0.0198;0.00477;0.000149;0.4963636;350
4290;448.6;0.0198;0.00477;0.000149;0.494;350
4292;448.6;0.0198;0.00477;0.000149;0.494;350
4294;448.7;0.0198;0.00477;0.000149;0.494;350
4296;448.7;0.0198;0.00477;0.000149;0.4892727;350
4298;448.6;0.0198;0.00477;0.000149;0.4892727;350
4300;448.5;0.0198;0.00477;0.000149;0.4892727;350
4302;448.5;0.0198;0.00477;0.000149;0.494;350
4304;448.7;0.0198;0.00477;0.000149;0.494;350
4306;448.7;0.0198;0.00477;0.000149;0.4916364;350
4308;448.7;0.0198;0.00477;0.000149;0.4916364;350
4310;448.7;0.0198;0.00477;0.000149;0.4892727;350
4312;448.7;0.0198;0.00477;0.000149;0.4916364;350
4314;448.6;0.0198;0.00477;0.000149;0.4916364;350
4316;448.7;0.0198;0.00477;0.000149;0.494;350
4318;448.6;0.0198;0.00477;0.000149;0.4916364;350
4320;448.7;0.0198;0.00477;0.000149;0.4916364;350
4322;448.7;0.0198;0.00477;0.000149;0.4916364;350
4324;448.7;0.0198;0.00477;0.000149;0.4916364;350
4326;448.7;0.0198;0.00477;0.000149;0.494;350
4328;448.8;0.0198;0.00477;0.000149;0.4916364;350
4330;448.7;0.0198;0.00477;0.000149;0.4916364;350
4332;448.8;0.0198;0.00477;0.000149;0.4892727;350
4334;448.7;0.0198;0.00477;0.000149;0.4892727;350
4336;448.8;0.0198;0.00477;0.000149;0.494;350
4338;448.9;0.0198;0.00477;0.000149;0.494;350
4340;448.8;0.0198;0.00477;0.000149;0.4916364;350
4342;448.9;0.0198;0.00477;0.000149;0.4892727;350
4344;448.8;0.0198;0.00477;0.000149;0.4892727;350
4346;448.8;0.0198;0.00477;0.000149;0.4916364;350
4348;448.9;0.0198;0.00477;0.000149;0.494;350
4350;448.9;0.0198;0.00477;0.000149;0.494;350
4352;448.9;0.0198;0.00477;0.000149;0.4916364;350
4354;448.9;0.0198;0.00477;0.000149;0.4916364;350
4356;449;0.0198;0.00477;0.000149;0.4869091;350
4358;448.9;0.0198;0.00477;0.000149;0.4916364;350
4360;448.9;0.0198;0.00477;0.000149;0.4916364;350
4362;448.9;0.0198;0.00477;0.000149;0.494;350
4364;448.9;0.0198;0.00477;0.000149;0.4916364;350
4366;448.9;0.0198;0.00477;0.000149;0.4892727;350
4368;449;0.0198;0.00477;0.000149;0.4892727;350
4370;448.9;0.0198;0.00477;0.000149;0.4892727;350
4372;449;0.0198;0.00477;0.000149;0.494;350
4374;449;0.0198;0.00477;0.000149;0.4916364;350
4376;449;0.0198;0.00477;0.000149;0.4916364;350
4378;449;0.0198;0.00477;0.000149;0.4916364;350
4380;449.1;0.0198;0.00477;0.000149;0.4892727;350
4382;449;0.0198;0.00477;0.000149;0.4892727;350
4384;449;0.0198;0.00477;0.000149;0.4916364;350
4386;449.1;0.0198;0.00477;0.000149;0.494;350
4388;449.1;0.0198;0.00477;0.000149;0.4916364;350
4390;449.1;0.0198;0.00477;0.000149;0.4916364;350
4392;449.1;0.0198;0.00477;0.000149;0.4892727;350
4394;449;0.0198;0.00477;0.000149;0.4892727;350
4396;449.1;0.0198;0.00477;0.000149;0.4916364;336
4398;449.1;0.0198;0.00477;0.000149;0.4916364;329
4400;449.1;0.0198;0.00477;0.000149;0.494;287
4402;449.1;0.0198;0.00477;0.000149;0.4916364;266
4404;449.2;0.0198;0.00477;0.000149;0.4916364;252
4406;449.3;0.0198;0.00477;0.000149;0.4916364;224
4408;449.2;0.0198;0.00477;0.000149;0.4892727;217
4410;449.2;0.0198;0.00477;0.000149;0.4892727;238
4412;449.3;0.0198;0.00477;0.000149;0.4892727;259
4414;449.2;0.0198;0.00477;0.000149;0.4916364;273
4416;449.2;0.0198;0.00477;0.000149;0.4916364;308
4418;449.2;0.0198;0.00477;0.000149;0.4916364;329
4420;449.2;0.0198;0.00477;0.000149;0.4892727;350
4422;449.2;0.0198;0.00477;0.000149;0.4892727;350
4424;449.3;0.0198;0.00477;0.000149;0.4892727;350
4426;449.2;0.0198;0.00477;0.000149;0.4892727;350
4428;449.3;0.0198;0.00477;0.000149;0.494;350
4430;449.4;0.0198;0.00477;0.000149;0.4916364;350
4432;449.4;0.0198;0.00477;0.000149;0.4916364;350
4434;449.4;0.0198;0.00477;0.000149;0.4892727;350
4436;449.4;0.0198;0.00477;0.000149;0.4892727;350
4438;449.3;0.0198;0.00477;0.000149;0.4892727;350
4440;449.4;0.0198;0.00477;0.000149;0.4892727;350
4442;449.4;0.0198;0.00477;0.000149;0.4916364;350
4444;449.4;0.0198;0.00477;0.000149;0.4916364;350
4446;449.5;0.0198;0.00477;0.000149;0.494;350
4448;449.5;0.0198;0.00477;0.000149;0.4916364;350
4450;449.5;0.0198;0.00477;0.000149;0.4916364;350
4452;449.5;0.0198;0.00477;0.000149;0.4916364;350
4454;449.4;0.0198;0.00477;0.000149;0.4892727;350
4456;449.5;0.0198;0.00477;0.000149;0.4892727;350
4458;449.5;0.0198;0.00477;0.000149;0.4892727;350
4460;449.5;0.0198;0.00477;0.000149;0.4916364;350
4462;449.5;0.0198;0.00477;0.000149;0.4892727;350
4464;449.5;0.0198;0.00477;0.000149;0.4892727;350
4466;449.5;0.0198;0.00477;0.000149;0.4892727;350
4468;449.5;0.0198;0.00477;0.000149;0.4869091;350
4470;449.5;0.0198;0.00477;0.000149;0.4892727;350
4472;449.5;0.0198;0.00477;0.000149;0.4892727;350
4474;449.6;0.0198;0.00477;0.000149;0.494;350
4476;449.6;0.0198;0.00477;0.000149;0.4916364;350
4478;449.7;0.0198;0.00477;0.000149;0.494;350
4480;449.7;0.0198;0.00477;0.000149;0.4916364;350
4482;449.7;0.0198;0.00477;0.000149;0.4892727;350
4484;449.7;0.0198;0.00477;0.000149;0.4892727;350
4486;449.6;0.0198;0.00477;0.000149;0.4869091;350
4488;449.6;0.0198;0.00477;0.000149;0.4892727;350
4490;449.6;0.0198;0.00477;0.000149;0.4892727;350
4492;449.6;0.0198;0.00477;0.000149;0.4916364;350
4494;449.6;0.0198;0.00477;0.000149;0.4916364;350
4496;449.7;0.0198;0.00477;0.000149;0.4916364;350
4498;449.7;0.0198;0.00477;0.000149;0.4892727;350
4500;449.7;0.0198;0.00477;0.000149;0.4892727;350
4502;449.7;0.0198;0.00477;0.000149;0.4892727;350
4504;449.6;0.0198;0.00477;0.000149;0.4869091;350
4506;449.6;0.0198;0.00477;0.000149;0.4916364;350
4508;449.6;0.0198;0.00477;0.000149;0.4916364;350
4510;449.6;0.0198;0.00477;0.000149;0.4916364;350
4512;449.7;0.0198;0.00477;0.000149;0.4892727;350
4514;449.7;0.0198;0.00477;0.000149;0.4892727;350
4516;449.7;0.0198;0.00477;0.000149;0.4892727;350
4518;449.7;0.0198;0.00477;0.000149;0.4869091;350
4520;449.6;0.0198;0.00477;0.000149;0.4869091;350
4522;449.6;0.0198;0.00477;0.000149;0.4869091;350
4524;449.6;0.0198;0.00477;0.000149;0.4892727;350
4526;449.6;0.0198;0.00477;0.000149;0.4892727;350
4528;449.6;0.0198;0.00477;0.000149;0.4916364;350
4530;449.6;0.0198;0.00477;0.000149;0.4916364;350
4532;449.7;0.0198;0.00477;0.000149;0.4892727;350
4534;449.7;0.0198;0.00477;0.000149;0.4892727;350
4536;449.7;0.0198;0.00477;0.000149;0.4869091;350
4538;449.7;0.0198;0.00477;0.000149;0.4869091;350
4540;449.6;0.0198;0.00477;0.000149;0.4869091;350
4542;449.6;0.0198;0.00477;0.000149;0.4892727;350
4544;449.6;0.0198;0.00477;0.000149;0.4916364;350
4546;449.7;0.0198;0.00477;0.000149;0.4916364;350
4548;449.7;0.0198;0.00477;0.000149;0.4916364;350
4550;449.7;0.0198;0.00477;0.000149;0.4892727;350
4552;449.7;0.0198;0.00477;0.000149;0.4892727;350
4554;449.6;0.0198;0.00477;0.000149;0.4845455;350
4556;449.6;0.0198;0.00477;0.000149;0.4869091;350
4558;449.6;0.0198;0.00477;0.000149;0.4892727;350
4560;449.6;0.0198;0.00477;0.000149;0.4916364;350
4562;449.6;0.0198;0.00477;0.000149;0.4916364;350
4564;449.6;0.0198;0.00477;0.000149;0.4869091;350
4566;449.6;0.0198;0.00477;0.000149;0.4869091;350
4568;449.6;0.0198;0.00477;0.000149;0.4845455;350
4570;449.5;0.0198;0.00477;0.000149;0.4869091;350
4572;449.5;0.0198;0.00477;0.000149;0.4892727;350
4574;449.5;0.0198;0.00477;0.000149;0.4892727;329
4576;449.6;0.0198;0.00477;0.000149;0.4892727;308
4578;449.6;0.0198;0.00477;0.000149;0.4892727;301
4580;449.6;0.0198;0.00477;0.000149;0.4892727;266
4582;449.6;0.0198;0.00477;0.000149;0.4869091;238
4584;449.6;0.0198;0.00477;0.000149;0.4869091;245
4586;449.6;0.0198;0.00477;0.000149;0.4845455;231
4588;449.5;0.0198;0.00477;0.000149;0.4821818;217
4590;449.5;0.0198;0.00477;0.000149;0.4869091;238
4592;449.5;0.0198;0.00477;0.000149;0.4869091;259
4594;449.5;0.0198;0.00477;0.000149;0.4892727;273
4596;449.6;0.0198;0.00477;0.000149;0.4892727;308
4598;449.6;0.0198;0.00477;0.000149;0.4869091;336
4600;449.6;0.0198;0.00477;0.000149;0.4869091;343
4602;449.6;0.0198;0.00477;0.000149;0.4845455;350
4604;449.5;0.0198;0.00477;0.000149;0.4845455;350
4606;449.5;0.0198;0.00477;0.000149;0.4821818;350
4608;449.5;0.0198;0.00477;0.000149;0.4869091;350
4610;449.5;0.0198;0.00477;0.000149;0.4892727;350
4612;449.5;0.0198;0.00477;0.000149;0.4869091;350
4614;449.6;0.0198;0.00477;0.000149;0.4869091;350
4616;449.6;0.0198;0.00477;0.000149;0.4845455;350
4618;449.6;0.0198;0.00477;0.000149;0.4845455;350
4620;449.5;0.0198;0.00477;0.000149;0.4821818;350
4622;449.5;0.0198;0.00477;0.000149;0.4892727;350
4624;449.5;0.0198;0.00477;0.000149;0.4892727;350
4626;449.6;0.0198;0.00477;0.000149;0.4892727;350
4628;449.6;0.0198;0.00477;0.000149;0.4869091;350
4630;449.6;0.0198;0.00477;0.000149;0.4869091;350
4632;449.6;0.0198;0.00477;0.000149;0.4869091;350
4634;449.6;0.0198;0.00477;0.000149;0.4845455;350
4636;449.5;0.0198;0.00477;0.000149;0.4845455;350
4638;449.5;0.0198;0.00477;0.000149;0.4845455;350
4640;449.5;0.0198;0.00477;0.000149;0.4869091;350
4642;449.5;0.0198;0.00477;0.000149;0.4845455;350
4644;449.6;0.0198;0.00477;0.000149;0.4845455;350
4646;449.5;0.0198;0.00477;0.000149;0.4845455;350
4648;449.5;0.0198;0.00477;0.000149;0.4821818;350
4650;449.5;0.0198;0.00477;0.000149;0.4869091;350
4652;449.5;0.0198;0.00477;0.000149;0.4869091;350
4654;449.5;0.0198;0.00477;0.000149;0.4892727;350
4656;449.6;0.0198;0.00477;0.000149;0.4845455;350
4658;449.6;0.0198;0.00477;0.000149;0.4845455;350
4660;449.6;0.0198;0.00477;0.000149;0.4821818;350
4662;449.5;0.0198;0.00477;0.000149;0.4821818;350
4664;449.5;0.0198;0.00477;0.000149;0.4845455;350
4666;449.5;0.0198;0.00477;0.000149;0.4845455;350
4668;449.5;0.0198;0.00477;0.000149;0.4869091;350
4670;449.5;0.0198;0.00477;0.000149;0.4845455;350
4672;449.5;0.0198;0.00477;0.000149;0.4845455;350
4674;449.5;0.0198;0.00477;0.000149;0.4821818;350
4676;449.5;0.0198;0.00477;0.000149;0.4821818;350
4678;449.5;0.0198;0.00477;0.000149;0.4869091;350
4680;449.5;0.0198;0.00477;0.000149;0.4869091;350
4682;449.6;0.0198;0.00477;0.000149;0.4916364;350
4684;449.6;0.0198;0.00477;0.000149;0.4869091;350
4686;449.6;0.0198;0.00477;0.000149;0.4845455;350
4688;449.6;0.0198;0.00477;0.000149;0.4821818;350
4690;449.5;0.0198;0.00477;0.000149;0.4845455;350
4692;449.4;0.0198;0.00477;0.000149;0.4869091;350
4694;449.4;0.0198;0.00477;0.000149;0.4845455;350
4696;449.5;0.0198;0.00477;0.000149;0.4869091;350
4698;449.5;0.0198;0.00477;0.000149;0.4821818;350
4700;449.5;0.0198;0.00477;0.000149;0.4845455;350
4702;449.4;0.0198;0.00477;0.000149;0.4798182;350
4704;449.4;0.0198;0.00477;0.000149;0.4821818;350
4706;449.4;0.0198;0.00477;0.000149;0.4845455;315
4708;449.4;0.0198;0.00477;0.000149;0.4845455;287
4710;449.4;0.0198;0.00441;0.000138;0.4845455;280
4712;449.5;0.0198;0.0044;0.000138;0.4821818;238
4714;449.4;0.0198;0.0044;0.000138;0.4821818;210
4716;449.4;0.0198;0.0044;0.000138;0.4798182;231
4718;449.4;0.0198;0.0044;0.000138;0.4798182;224
4720;449.4;0.0198;0.00441;0.000138;0.4845455;217
4722;449.4;0.0198;0.00441;0.000138;0.4845455;238
4724;449.4;0.0198;0.00443;0.000138;0.4845455;259
4726;449.5;0.0198;0.00444;0.000139;0.4821818;280
4728;449.5;0.0198;0.00443;0.000138;0.4821818;315
4730;449.5;0.0198;0.00444;0.000139;0.4821818;336
4732;449.4;0.0198;0.00447;0.000140;0.4845455;350
4734;449.5;0.0198;0.00448;0.000140;0.4845455;350
4736;449.5;0.0198;0.00448;0.000140;0.4845455;350
4738;449.5;0.0198;0.00452;0.000141;0.4821818;350
4740;449.5;0.0198;0.00453;0.000142;0.4821818;350
4742;449.5;0.0198;0.00453;0.000142;0.4821818;350
4744;449.5;0.0198;0.00455;0.000142;0.4798182;350
4746;449.5;0.0198;0.00455;0.000142;0.4798182;350
4748;449.4;0.0198;0.00459;0.000143;0.4798182;350
4750;449.4;0.0198;0.00459;0.000143;0.4798182;350
4752;449.4;0.0198;0.00462;0.000144;0.4821818;350
4754;449.4;0.0198;0.00462;0.000144;0.4845455;350
4756;449.5;0.0198;0.00462;0.000144;0.4869091;350
4758;449.6;0.0198;0.00466;0.000146;0.4821818;350
4760;449.6;0.0198;0.00466;0.000146;0.4821818;350
4762;449.6;0.0198;0.00466;0.000146;0.4798182;350
4764;449.5;0.0198;0.00468;0.000146;0.4821818;350
4766;449.5;0.0198;0.00468;0.000146;0.4798182;350
4768;449.5;0.0198;0.00468;0.000146;0.4821818;350
4770;449.5;0.0198;0.00469;0.000147;0.4821818;350
4772;449.5;0.0198;0.00469;0.000147;0.4798182;350
4774;449.5;0.0198;0.0047;0.000147;0.4798182;350
4776;449.5;0.0198;0.0047;0.000147;0.4821818;350
4778;449.6;0.0198;0.00471;0.000147;0.4845455;350
4780;449.6;0.0198;0.00471;0.000147;0.4845455;350
4782;449.6;0.0198;0.00471;0.000147;0.4821818;350
4784;449.6;0.0198;0.00471;0.000147;0.4821818;350
4786;449.6;0.0198;0.00471;0.000147;0.4774545;350
4788;449.6;0.0198;0.00471;0.000147;0.4821818;350
4790;449.6;0.0198;0.00471;0.000147;0.4821818;350
4792;449.6;0.0198;0.00472;0.000148;0.4821818;350
4794;449.7;0.0198;0.00472;0.000148;0.4821818;350
4796;449.7;0.0198;0.00471;0.000147;0.4798182;350
4798;449.7;0.0198;0.00471;0.000147;0.4798182;350
4800;449.6;0.0198;0.00472;0.000148;0.4798182;350
4802;449.6;0.0198;0.00472;0.000148;0.4821818;350
4804;449.7;0.0198;0.00472;0.000148;0.4845455;350
4806;449.7;0.0198;0.00472;0.000148;0.4821818;350
4808;449.7;0.0198;0.00473;0.000148;0.4798182;350
4810;449.7;0.0198;0.00473;0.000148;0.4798182;350
4812;449.7;0.0198;0.00473;0.000148;0.4798182;350
4814;449.7;0.0198;0.00472;0.000148;0.4774545;350
4816;449.7;0.0198;0.00473;0.000148;0.4821818;350
4818;449.7;0.0198;0.00473;0.000148;0.4821818;350
4820;449.7;0.0198;0.00473;0.000148;0.4821818;350
4822;449.8;0.0198;0.00473;0.000148;0.4821818;350
4824;449.8;0.0198;0.00473;0.000148;0.4798182;350
4826;449.8;0.0198;0.00473;0.000148;0.4798182;350
4828;449.8;0.0198;0.00473;0.000148;0.4798182;350
4830;449.7;0.0198;0.00473;0.000148;0.4798182;350
4832;449.7;0.0198;0.00473;0.000148;0.4774545;350
4834;449.7;0.0198;0.00473;0.000148;0.4821818;350
4836;449.8;0.0198;0.00473;0.000148;0.4821818;350
4838;449.8;0.0198;0.00473;0.000148;0.4821818;350
4840;449.8;0.0198;0.00473;0.000148;0.4821818;350
4842;449.9;0.0198;0.00473;0.000148;0.4798182;350
4844;449.8;0.0198;0.00473;0.000148;0.4798182;350
4846;449.8;0.0198;0.00473;0.000148;0.4798182;350
4848;449.8;0.0198;0.00473;0.000148;0.4821818;350
4850;449.8;0.0198;0.00474;0.000148;0.4821818;350
4852;449.9;0.0198;0.00474;0.000148;0.4821818;350
4854;449.9;0.0198;0.00473;0.000148;0.4845455;350
4856;449.9;0.0198;0.00473;0.000148;0.4821818;350
4858;449.9;0.0198;0.00473;0.000148;0.4821818;350
4860;449.9;0.0198;0.00473;0.000148;0.4774545;350
4862;449.8;0.0198;0.00473;0.000148;0.4798182;350
4864;449.8;0.0198;0.00473;0.000148;0.4821818;350
4866;449.8;0.0198;0.00473;0.000148;0.4845455;350
4868;449.9;0.0198;0.00474;0.000148;0.4845455;350
4870;449.9;0.0198;0.00473;0.000148;0.4821818;350
4872;449.9;0.0198;0.00473;0.000148;0.4821818;350
4874;449.9;0.0198;0.00473;0.000148;0.4798182;350
4876;449.9;0.0198;0.00473;0.000148;0.4798182;350
4878;449.8;0.0198;0.00473;0.000148;0.4774545;350
4880;449.8;0.0198;0.00473;0.000148;0.4774545;350
4882;449.8;0.0198;0.00473;0.000148;0.4798182;350
4884;449.8;0.0198;0.00473;0.000148;0.4821818;350
4886;449.8;0.0198;0.00474;0.000148;0.4845455;350
4888;449.9;0.0198;0.00474;0.000148;0.4821818;350
4890;449.9;0.0198;0.00473;0.000148;0.4821818;350
4892;449.9;0.0198;0.00473;0.000148;0.4798182;350
4894;449.9;0.0198;0.00473;0.000148;0.4798182;350
4896;449.9;0.0198;0.00473;0.000148;0.4798182;350
4898;449.9;0.0198;0.00473;0.000148;0.4821818;350
4900;449.9;0.0198;0.00473;0.000148;0.4845455;350
4902;449.9;0.0198;0.00473;0.000148;0.4821818;350
4904;449.9;0.0198;0.00473;0.000148;0.4821818;350
4906;449.9;0.0198;0.00473;0.000148;0.4774545;350
4908;449.9;0.0198;0.00473;0.000148;0.4774545;350
4910;449.8;0.0198;0.00473;0.000148;0.4774545;350
4912;449.8;0.0198;0.00473;0.000148;0.4821818;350
4914;449.8;0.0198;0.00473;0.000148;0.4821818;350
4916;449.8;0.0198;0.00473;0.000148;0.4798182;350
4918;449.8;0.0198;0.00474;0.000148;0.4798182;350
4920;449.8;0.0198;0.00473;0.000148;0.4774545;350
4922;449.8;0.0198;0.00473;0.000148;0.4774545;350
4924;449.8;0.0198;0.00473;0.000148;0.4774545;308
4926;449.8;0.0198;0.00473;0.000148;0.4798182;308
4928;449.8;0.0198;0.00473;0.000148;0.4798182;273
4930;449.8;0.0198;0.00473;0.000148;0.4798182;273
4932;449.9;0.0198;0.00473;0.000148;0.4798182;273
4934;449.9;0.0198;0.00473;0.000148;0.4774545;315
4936;449.9;0.0198;0.00474;0.000148;0.4798182;315
4938;449.8;0.0198;0.00473;0.000148;0.4774545;350
4940;449.8;0.0198;0.00474;0.000148;0.4774545;350
4942;449.8;0.0198;0.00473;0.000148;0.4798182;350
4944;449.8;0.0198;0.00474;0.000148;0.4798182;350
4946;449.9;0.0198;0.00473;0.000148;0.4821818;350
4948;449.9;0.0198;0.00473;0.000148;0.4798182;350
4950;449.9;0.0198;0.00473;0.000148;0.4798182;350
4952;449.9;0.0198;0.00473;0.000148;0.4774545;350
4954;449.9;0.0198;0.00474;0.000148;0.4750909;350
4956;449.8;0.0198;0.00473;0.000148;0.4798182;350
4958;449.8;0.0198;0.00473;0.000148;0.4798182;350
4960;449.9;0.0198;0.00474;0.000148;0.4798182;350
4962;449.9;0.0198;0.00474;0.000148;0.4774545;350
4964;449.9;0.0198;0.00473;0.000148;0.4774545;350
4966;449.9;0.0198;0.00474;0.000148;0.4774545;350
4968;449.9;0.0198;0.00473;0.000148;0.4774545;350
4970;449.9;0.0198;0.00474;0.000148;0.4798182;350
4972;449.9;0.0198;0.00473;0.000148;0.4798182;350
4974;449.9;0.0198;0.00474;0.000148;0.4798182;350
4976;450;0.0198;0.00473;0.000148;0.4798182;350
4978;450;0.0198;0.00474;0.000148;0.4798182;350
4980;450;0.0198;0.00473;0.000148;0.4774545;350
4982;450;0.0198;0.00473;0.000148;0.4774545;350
4984;449.9;0.0198;0.00473;0.000148;0.4774545;350
4986;449.9;0.0198;0.00473;0.000148;0.4798182;350
4988;449.9;0.0198;0.00474;0.000148;0.4798182;350
4990;450;0.0198;0.00473;0.000148;0.4798182;350
4992;450;0.0198;0.00473;0.000148;0.4774545;350
4994;450;0.0198;0.00474;0.000148;0.4774545;350
4996;450;0.0198;0.00473;0.000148;0.4750909;350
4998;449.9;0.0198;0.00474;0.000148;0.4750909;350
5000;449.9;0.0198;0.00474;0.000148;0.4774545;350
5002;449.9;0.0198;0.00474;0.000148;0.4798182;350
5004;450;0.0198;0.00474;0.000148;0.4774545;350
5006;450;0.0198;0.00474;0.000148;0.4798182;350
5008;450;0.0198;0.00475;0.000148;0.4774545;350
5010;450;0.0198;0.00473;0.000148;0.4798182;350
5012;450;0.0198;0.00475;0.000148;0.4774545;350
5014;450;0.0198;0.00474;0.000148;0.4774545;350
5016;450;0.0198;0.00474;0.000148;0.4774545;350
5018;450;0.0198;0.00474;0.000148;0.4750909;350
5020;450;0.0198;0.00474;0.000148;0.4774545;350
5022;450;0.0198;0.00475;0.000148;0.4774545;350
5024;450;0.0198;0.00474;0.000148;0.4798182;350
5026;450;0.0198;0.00474;0.000148;0.4798182;350
5028;450;0.0198;0.00474;0.000148;0.4798182;350
5030;450.1;0.0198;0.00475;0.000148;0.4774545;350
5032;450;0.0198;0.00475;0.000148;0.4750909;308
5034;450;0.0198;0.00474;0.000148;0.4750909;308
5036;450;0.0198;0.00474;0.000148;0.4750909;273
5038;449.9;0.0198;0.00474;0.000148;0.4774545;238
5040;450;0.0198;0.00474;0.000148;0.4798182;238
5042;450;0.0198;0.00475;0.000148;0.4798182;238
5044;450;0.0198;0.00475;0.000148;0.4798182;238
5046;450.1;0.0198;0.00475;0.000148;0.4774545;273
5048;450;0.0198;0.00475;0.000148;0.4774545;301
5050;450;0.0198;0.00475;0.000148;0.4727273;308
5052;450;0.0198;0.00475;0.000148;0.4774545;350
5054;450;0.0198;0.00474;0.000148;0.4798182;350
5056;450;0.0198;0.00475;0.000148;0.4798182;350
5058;450;0.0198;0.00474;0.000148;0.4774545;350
5060;450;0.0198;0.00474;0.000148;0.4774545;350
5062;450;0.0198;0.00474;0.000148;0.4774545;350
5064;450;0.0198;0.00475;0.000148;0.4750909;350
5066;449.9;0.0198;0.00474;0.000148;0.4774545;350
5068;450;0.0198;0.00475;0.000148;0.4774545;350
5070;450;0.0198;0.00474;0.000148;0.4774545;350
5072;450;0.0198;0.00475;0.000148;0.4750909;350
5074;449.9;0.0198;0.00474;0.000148;0.4750909;350
5076;449.9;0.0198;0.00474;0.000148;0.4750909;350
5078;449.9;0.0198;0.00475;0.000148;0.4750909;350
5080;449.9;0.0198;0.00474;0.000148;0.4774545;350
5082;449.9;0.0198;0.00474;0.000148;0.4774545;350
5084;450;0.0198;0.00475;0.000148;0.4774545;350
5086;450;0.0198;0.00475;0.000148;0.4750909;350
5088;450;0.0198;0.00475;0.000148;0.4750909;350
5090;449.9;0.0198;0.00475;0.000148;0.4750909;350
5092;449.9;0.0198;0.00475;0.000148;0.4750909;350
5094;449.9;0.0198;0.00475;0.000148;0.4774545;350
5096;450;0.0198;0.00474;0.000148;0.4750909;350
5098;450;0.0198;0.00475;0.000148;0.4750909;350
5100;450;0.0198;0.00474;0.000148;0.4750909;350
5102;450;0.0198;0.00475;0.000148;0.4750909;350
5104;450;0.0198;0.00474;0.000148;0.4750909;350
5106;450;0.0198;0.00475;0.000148;0.4750909;350
5108;450;0.0198;0.00474;0.000148;0.4774545;350
5110;450;0.0198;0.00474;0.000148;0.4774545;350
5112;450;0.0198;0.00475;0.000148;0.4774545;350
5114;450;0.0198;0.00474;0.000148;0.4774545;350
5116;450.1;0.0198;0.00475;0.000148;0.4750909;350
5118;450;0.0198;0.00475;0.000148;0.4750909;350
5120;450;0.0198;0.00474;0.000148;0.4727273;350
5122;450;0.0198;0.00475;0.000148;0.4750909;350
5124;449.9;0.0198;0.00475;0.000148;0.4750909;350
5126;450.1;0.0198;0.00474;0.000148;0.4798182;350
5128;450;0.0198;0.00475;0.000148;0.4774545;350
5130;450.1;0.0198;0.00474;0.000148;0.4774545;350
5132;450;0.0198;0.00475;0.000148;0.4750909;350
5134;450.1;0.0198;0.00475;0.000148;0.4750909;350
5136;450;0.0198;0.00475;0.000148;0.4750909;350
5138;450;0.0198;0.00475;0.000148;0.4750909;350
5140;450;0.0198;0.00475;0.000148;0.4774545;350
5142;450.1;0.0198;0.00475;0.000148;0.4774545;350
5144;450;0.0198;0.00475;0.000148;0.4774545;350
5146;450.1;0.0198;0.00475;0.000148;0.4750909;350
5148;450;0.0198;0.00475;0.000148;0.4727273;350
5150;450;0.0198;0.00475;0.000148;0.4750909;350
5152;450;0.0198;0.00475;0.000148;0.4727273;350
5154;450;0.0198;0.00474;0.000148;0.4774545;350
5156;450.1;0.0198;0.00475;0.000148;0.4774545;350
5158;450;0.0198;0.00475;0.000148;0.4750909;350
5160;450;0.0198;0.00475;0.000148;0.4750909;350
5162;450;0.0198;0.00475;0.000148;0.4727273;343
5164;450;0.0198;0.00475;0.000148;0.4750909;308
5166;449.9;0.0198;0.00475;0.000148;0.4727273;301
5168;449.9;0.0198;0.00474;0.000148;0.4750909;266
5170;450;0.0198;0.00476;0.000149;0.4750909;231
5172;450;0.0198;0.00475;0.000148;0.4774545;238
5174;450;0.0198;0.00475;0.000148;0.4774545;231
5176;450.1;0.0198;0.00475;0.000148;0.4750909;210
5178;450;0.0198;0.00475;0.000148;0.4727273;238
5180;450;0.0198;0.00475;0.000148;0.4727273;273
5182;450;0.0198;0.00475;0.000148;0.4750909;273
5184;450;0.0198;0.00475;0.000148;0.4750909;315
5186;450;0.0198;0.00475;0.000148;0.4750909;343
5188;450;0.0198;0.00475;0.000148;0.4727273;350
5190;450;0.0198;0.00475;0.000148;0.4727273;350
5192;450;0.0198;0.00475;0.000148;0.4727273;350
5194;450.1;0.0198;0.00475;0.000148;0.4703636;350
5196;450;0.0198;0.00475;0.000148;0.4750909;350
5198;450;0.0198;0.00475;0.000148;0.4727273;350
5200;450;0.0198;0.00475;0.000148;0.4750909;350
5202;450;0.0198;0.00475;0.000148;0.4727273;350
5204;450;0.0198;0.00475;0.000148;0.4727273;350
5206;450;0.0198;0.00475;0.000148;0.4727273;350
5208;450;0.0198;0.00475;0.000148;0.4703636;350
5210;450.1;0.0198;0.00475;0.000148;0.4750909;350
5212;450.1;0.0198;0.00475;0.000148;0.4750909;350
5214;450.1;0.0198;0.00475;0.000148;0.4774545;350
5216;450.1;0.0198;0.00475;0.000148;0.4727273;350
5218;450.1;0.0198;0.00475;0.000148;0.4774545;350
5220;450.2;0.0198;0.00475;0.000148;0.4774545;350
5222;450.2;0.0198;0.00475;0.000148;0.4750909;350
5224;450.1;0.0198;0.00474;0.000148;0.4750909;350
5226;450.1;0.0198;0.00475;0.000148;0.4727273;350
5228;450.1;0.0198;0.00475;0.000148;0.4774545;350
5230;450.1;0.0198;0.00475;0.000148;0.4774545;350
5232;450.1;0.0198;0.00475;0.000148;0.4750909;350
5234;450.2;0.0198;0.00475;0.000148;0.4750909;350
5236;450.1;0.0198;0.00475;0.000148;0.4727273;350
5238;450.1;0.0198;0.00475;0.000148;0.4727273;350
5240;450;0.0198;0.00475;0.000148;0.4703636;350
5242;450.1;0.0198;0.00474;0.000148;0.4727273;350
5244;450;0.0198;0.00475;0.000148;0.4727273;350
5246;450.1;0.0198;0.00475;0.000148;0.4727273;350
5248;450.2;0.0198;0.00475;0.000148;0.4750909;350
5250;450.1;0.0198;0.00475;0.000148;0.4727273;350
5252;450.1;0.0198;0.00475;0.000148;0.4727273;350
5254;450.2;0.0198;0.00475;0.000148;0.4703636;350
5256;450.2;0.0198;0.00475;0.000148;0.4750909;350
5258;450.1;0.0198;0.00475;0.000148;0.4703636;350
5260;450.1;0.0198;0.00475;0.000148;0.4727273;350
5262;450.1;0.0198;0.00474;0.000148;0.4703636;350
5264;450.1;0.0198;0.00475;0.000148;0.4703636;350
5266;450.2;0.0198;0.00475;0.000148;0.4750909;350
5268;450.2;0.0198;0.00475;0.000148;0.4727273;350
5270;450.1;0.0198;0.00475;0.000148;0.4750909;350
5272;450.2;0.0198;0.00475;0.000148;0.4750909;350
5274;450.2;0.0198;0.00475;0.000148;0.4750909;350
5276;450.2;0.0198;0.00474;0.000148;0.4727273;350
5278;450.2;0.0198;0.00475;0.000148;0.4703636;350
5280;450.2;0.0198;0.00474;0.000148;0.4727273;350
5282;450.1;0.0198;0.00475;0.000148;0.4703636;350
5284;450.1;0.0198;0.00475;0.000148;0.4750909;350
5286;450.1;0.0198;0.00475;0.000148;0.4750909;350
5288;450.2;0.0198;0.00475;0.000148;0.4750909;350
5290;450.2;0.0198;0.00475;0.000148;0.4727273;350
5292;450.2;0.0198;0.00474;0.000148;0.4727273;350
5294;450.3;0.0198;0.00475;0.000148;0.4727273;350
5296;450.3;0.0198;0.00475;0.000148;0.4703636;350
5298;450.1;0.0198;0.00475;0.000148;0.4727273;350
5300;450.1;0.0198;0.00474;0.000148;0.4727273;350
5302;450.1;0.0198;0.00474;0.000148;0.4750909;350
5304;450.2;0.0198;0.00475;0.000148;0.4750909;350
5306;450.2;0.0198;0.00475;0.000148;0.4727273;350
5308;450.2;0.0198;0.00475;0.000148;0.4727273;350
5310;450.3;0.0198;0.00474;0.000148;0.4703636;350
5312;450.1;0.0198;0.00475;0.000148;0.4703636;350
5314;450.1;0.0198;0.00474;0.000148;0.4727273;350
5316;450.1;0.0198;0.00475;0.000148;0.4750909;350
5318;450.2;0.0198;0.00475;0.000148;0.4727273;350
5320;450.2;0.0198;0.00475;0.000148;0.4727273;350
5322;450.2;0.0198;0.00475;0.000148;0.4727273;350
5324;450.2;0.0198;0.00475;0.000148;0.4703636;350
5326;450.1;0.0198;0.00474;0.000148;0.4703636;308
5328;450.2;0.0198;0.00475;0.000148;0.4703636;301
5330;450.1;0.0198;0.00474;0.000148;0.4703636;273
5332;450.1;0.0198;0.00475;0.000148;0.4703636;231
5334;450.2;0.0198;0.00474;0.000148;0.4703636;231
5336;450.1;0.0198;0.00475;0.000148;0.4750909;238
5338;450.1;0.0198;0.00475;0.000148;0.4727273;210
5340;450.2;0.0198;0.00474;0.000148;0.4750909;231
5342;450.3;0.0198;0.00475;0.000148;0.4703636;273
5344;450.2;0.0198;0.00474;0.000148;0.4703636;273
5346;450.2;0.0198;0.00475;0.000148;0.4703636;308
5348;450.2;0.0198;0.00474;0.000148;0.4703636;343
5350;450.2;0.0198;0.00475;0.000148;0.4750909;350
5352;450.2;0.0198;0.00475;0.000148;0.4727273;350
5354;450.1;0.0198;0.00475;0.000148;0.4750909;350
5356;450.3;0.0198;0.00474;0.000148;0.4727273;350
5358;450.3;0.0198;0.00475;0.000148;0.4727273;350
5360;450.2;0.0198;0.00475;0.000148;0.4703636;350
5362;450.2;0.0198;0.00475;0.000148;0.468;350
5364;450.2;0.0198;0.00474;0.000148;0.4703636;350
5366;450;0.0198;0.00475;0.000148;0.4703636;350
5368;450.1;0.0198;0.00474;0.000148;0.4750909;350
5370;450.2;0.0198;0.00475;0.000148;0.4727273;350
5372;450.3;0.0198;0.00475;0.000148;0.4727273;350
5374;450.2;0.0198;0.00475;0.000148;0.4703636;350
5376;450.2;0.0198;0.00475;0.000148;0.4703636;350
5378;450.1;0.0198;0.00474;0.000148;0.4703636;350
5380;450.1;0.0198;0.00474;0.000148;0.468;350
5382;450.1;0.0198;0.00474;0.000148;0.4703636;350
5384;450.1;0.0198;0.00475;0.000148;0.4703636;350
5386;450.1;0.0198;0.00474;0.000148;0.4727273;350
5388;450.2;0.0198;0.00474;0.000148;0.4727273;350
5390;450.1;0.0198;0.00474;0.000148;0.4727273;350
5392;450.3;0.0198;0.00475;0.000148;0.4750909;350
5394;450.3;0.0198;0.00475;0.000148;0.4703636;350
5396;450.2;0.0198;0.00474;0.000148;0.4727273;350
5398;450.2;0.0198;0.00475;0.000148;0.4703636;350
5400;450.2;0.0198;0.00474;0.000148;0.4703636;350
5402;450.2;0.0198;0.00474;0.000148;0.468;350
5404;450.2;0.0198;0.00475;0.000148;0.4703636;350
5406;450.1;0.0198;0.00475;0.000148;0.468;350
5408;450.1;0.0198;0.00475;0.000148;0.468;350
5410;450.1;0.0198;0.00474;0.000148;0.4703636;350
5412;450.2;0.0198;0.00474;0.000148;0.4703636;350
5414;450.3;0.0198;0.00475;0.000148;0.4750909;350
5416;450.4;0.0198;0.00474;0.000148;0.4750909;350
5418;450.4;0.0198;0.00475;0.000148;0.4750909;350
5420;450.3;0.0198;0.00474;0.000148;0.4703636;350
5422;450.4;0.0198;0.00475;0.000148;0.4703636;350
5424;450.3;0.0198;0.00474;0.000148;0.4703636;350
5426;450.3;0.0198;0.00475;0.000148;0.468;350
5428;450.2;0.0198;0.00474;0.000148;0.4703636;350
5430;450.3;0.0198;0.00474;0.000148;0.4727273;350
5432;450.3;0.0198;0.00474;0.000148;0.4727273;350
5434;450.4;0.0198;0.00475;0.000148;0.4727273;350
5436;450.4;0.0198;0.00475;0.000148;0.4703636;350
5438;450.3;0.0198;0.00474;0.000148;0.4703636;350
5440;450.3;0.0198;0.00475;0.000148;0.468;350
5442;450.3;0.0198;0.00475;0.000148;0.4703636;350
5444;450.3;0.0198;0.00475;0.000148;0.4703636;350
5446;450.3;0.0198;0.00474;0.000148;0.4750909;350
5448;450.3;0.0198;0.00474;0.000148;0.4727273;350
5450;450.5;0.0198;0.00475;0.000148;0.4703636;350
5452;450.4;0.0198;0.00474;0.000148;0.4727273;350
5454;450.4;0.0198;0.00474;0.000148;0.4703636;350
5456;450.4;0.0198;0.00475;0.000148;0.4703636;350
5458;450.3;0.0198;0.00474;0.000148;0.468;350
5460;450.3;0.0198;0.00475;0.000148;0.4727273;350
5462;450.3;0.0198;0.00474;0.000148;0.4727273;350
5464;450.4;0.0198;0.00474;0.000148;0.4727273;350
5466;450.4;0.0198;0.00474;0.000148;0.4727273;350
5468;450.5;0.0198;0.00474;0.000148;0.4703636;350
5470;450.4;0.0198;0.00474;0.000148;0.4703636;350
5472;450.4;0.0198;0.00474;0.000148;0.468;350
5474;450.4;0.0198;0.00475;0.000148;0.4703636;350
5476;450.4;0.0198;0.00474;0.000148;0.4727273;350
5478;450.4;0.0198;0.00474;0.000148;0.4727273;350
5480;450.5;0.0198;0.00474;0.000148;0.4727273;350
5482;450.4;0.0198;0.00475;0.000148;0.4703636;336
5484;450.4;0.0198;0.00474;0.000148;0.4703636;329
5486;450.4;0.0198;0.00474;0.000148;0.468;301
5488;450.5;0.0198;0.00474;0.000148;0.4703636;259
5490;450.4;0.0198;0.00475;0.000148;0.4703636;252
5492;450.4;0.0198;0.00475;0.000148;0.4703636;238
5494;450.4;0.0198;0.00475;0.000148;0.4703636;210
5496;450.5;0.0198;0.00474;0.000148;0.4703636;231
5498;450.5;0.0198;0.00475;0.000148;0.4703636;238
5500;450.5;0.0198;0.00475;0.000148;0.468;210
5502;450.5;0.0198;0.00474;0.000148;0.4703636;231
5504;450.5;0.0198;0.00475;0.000148;0.468;273
5506;450.5;0.0198;0.00474;0.000148;0.4703636;273
5508;450.5;0.0198;0.00475;0.000148;0.4727273;308
5510;450.5;0.0198;0.00474;0.000148;0.4727273;343
5512;450.5;0.0198;0.00475;0.000148;0.4727273;350
5514;450.6;0.0198;0.00475;0.000148;0.4727273;350
5516;450.6;0.0198;0.00475;0.000148;0.4727273;350
5518;450.6;0.0198;0.00474;0.000148;0.4703636;350
5520;450.6;0.0198;0.00474;0.000148;0.468;350
5522;450.5;0.0198;0.00474;0.000148;0.468;350
5524;450.4;0.0198;0.00475;0.000148;0.468;350
5526;450.5;0.0198;0.00474;0.000148;0.4727273;350
5528;450.5;0.0198;0.00474;0.000148;0.4703636;350
5530;450.5;0.0198;0.00475;0.000148;0.4703636;350
5532;450.6;0.0198;0.00475;0.000148;0.4703636;350
5534;450.6;0.0198;0.00474;0.000148;0.4703636;350
5536;450.6;0.0198;0.00474;0.000148;0.4703636;350
5538;450.5;0.0198;0.00474;0.000148;0.468;350
5540;450.5;0.0198;0.00474;0.000148;0.468;350
5542;450.5;0.0198;0.00474;0.000148;0.4703636;350
5544;450.5;0.0198;0.00475;0.000148;0.4727273;350
5546;450.5;0.0198;0.00475;0.000148;0.4727273;350
5548;450.6;0.0198;0.00474;0.000148;0.4703636;350
5550;450.6;0.0198;0.00475;0.000148;0.4703636;350
5552;450.6;0.0198;0.00474;0.000148;0.468;350
5554;450.6;0.0198;0.00474;0.000148;0.4703636;350
5556;450.4;0.0198;0.00474;0.000148;0.4703636;350
5558;450.4;0.0198;0.00474;0.000148;0.4727273;350
5560;450.6;0.0198;0.00474;0.000148;0.4727273;350
5562;450.5;0.0198;0.00474;0.000148;0.4703636;350
5564;450.6;0.0198;0.00475;0.000148;0.4703636;350
5566;450.6;0.0198;0.00474;0.000148;0.4703636;350
5568;450.6;0.0198;0.00475;0.000148;0.4703636;350
5570;450.4;0.0198;0.00474;0.000148;0.468;350
5572;450.5;0.0198;0.00474;0.000148;0.468;350
5574;450.4;0.0198;0.00475;0.000148;0.468;350
5576;450.5;0.0198;0.00475;0.000148;0.468;350
5578;450.5;0.0198;0.00474;0.000148;0.468;350
5580;450.4;0.0198;0.00475;0.000148;0.468;350
5582;450.5;0.0198;0.00474;0.000148;0.4727273;350
5584;450.5;0.0198;0.00475;0.000148;0.4727273;350
5586;450.6;0.0198;0.00475;0.000148;0.4727273;350
5588;450.6;0.0198;0.00475;0.000148;0.4727273;350
5590;450.6;0.0198;0.00475;0.000148;0.4703636;350
5592;450.6;0.0198;0.00475;0.000148;0.4703636;350
5594;450.6;0.0198;0.00475;0.000148;0.468;350
5596;450.5;0.0198;0.00475;0.000148;0.468;350
5598;450.5;0.0198;0.00476;0.000149;0.468;350
5600;450.5;0.0198;0.00475;0.000148;0.4703636;350
5602;450.5;0.0198;0.00475;0.000148;0.4703636;350
5604;450.6;0.0198;0.00475;0.000148;0.4727273;350
5606;450.6;0.0198;0.00475;0.000148;0.4703636;350
5608;450.7;0.0198;0.00475;0.000148;0.4703636;350
5610;450.7;0.0198;0.00475;0.000148;0.4727273;350
5612;450.7;0.0198;0.00475;0.000148;0.468;350
5614;450.6;0.0198;0.00475;0.000148;0.4703636;308
5616;450.6;0.0198;0.00475;0.000148;0.468;301
5618;450.6;0.0198;0.00476;0.000149;0.468;273
5620;450.6;0.0198;0.00475;0.000148;0.468;231
5622;450.6;0.0198;0.00476;0.000149;0.4703636;231
5624;450.6;0.0198;0.00475;0.000148;0.4703636;238
5626;450.6;0.0198;0.00475;0.000148;0.4703636;210
5628;450.6;0.0198;0.00476;0.000149;0.4727273;231
5630;450.7;0.0198;0.00475;0.000148;0.4727273;238
5632;450.7;0.0198;0.00476;0.000149;0.4727273;238
5634;450.7;0.0198;0.00475;0.000148;0.4727273;273
5636;450.7;0.0198;0.00475;0.000148;0.4703636;315
5638;450.7;0.0198;0.00476;0.000149;0.4703636;315
5640;450.7;0.0198;0.00476;0.000149;0.468;350
5642;450.7;0.0198;0.00476;0.000149;0.468;350
5644;450.6;0.0198;0.00476;0.000149;0.4656364;350
5646;450.6;0.0198;0.00476;0.000149;0.468;350
5648;450.6;0.0198;0.00477;0.000149;0.468;350
5650;450.6;0.0198;0.00475;0.000148;0.4703636;350
5652;450.6;0.0198;0.00476;0.000149;0.4727273;350
5654;450.7;0.0198;0.00476;0.000149;0.4703636;350
5656;450.7;0.0198;0.00477;0.000149;0.4703636;350
5658;450.7;0.0198;0.00476;0.000149;0.468;350
5660;450.7;0.0198;0.00476;0.000149;0.468;350
5662;450.7;0.0198;0.00476;0.000149;0.468;350
5664;450.7;0.0198;0.00475;0.000148;0.4703636;350
5666;450.7;0.0198;0.00476;0.000149;0.4727273;350
5668;450.7;0.0198;0.00476;0.000149;0.4703636;350
5670;450.7;0.0198;0.00476;0.000149;0.4727273;350
5672;450.7;0.0198;0.00476;0.000149;0.4703636;350
5674;450.7;0.0198;0.00476;0.000149;0.4703636;350
5676;450.7;0.0198;0.00476;0.000149;0.4703636;350
5678;450.7;0.0198;0.00476;0.000149;0.468;350
5680;450.7;0.0198;0.00476;0.000149;0.468;350
5682;450.6;0.0198;0.00475;0.000148;0.468;350
5684;450.6;0.0198;0.00475;0.000148;0.468;350
5686;450.6;0.0198;0.00476;0.000149;0.4656364;350
5688;450.6;0.0198;0.00476;0.000149;0.468;350
5690;450.6;0.0198;0.00475;0.000148;0.4703636;350
5692;450.7;0.0198;0.00476;0.000149;0.4703636;350
5694;450.7;0.0198;0.00476;0.000149;0.4727273;350
5696;450.7;0.0198;0.00475;0.000148;0.4703636;350
5698;450.7;0.0198;0.00475;0.000148;0.4703636;350
5700;450.7;0.0198;0.00475;0.000148;0.468;350
5702;450.7;0.0198;0.00475;0.000148;0.468;350
5704;450.6;0.0198;0.00476;0.000149;0.468;350
5706;450.6;0.0198;0.00475;0.000148;0.468;350
5708;450.6;0.0198;0.00476;0.000149;0.4703636;350
5710;450.7;0.0198;0.00475;0.000148;0.468;350
5712;450.7;0.0198;0.00475;0.000148;0.468;350
5714;450.6;0.0198;0.00475;0.000148;0.468;350
5716;450.6;0.0198;0.00475;0.000148;0.4703636;350
5718;450.6;0.0198;0.00475;0.000148;0.468;350
5720;450.6;0.0198;0.00475;0.000148;0.4703636;350
5722;450.7;0.0198;0.00475;0.000148;0.4703636;350
5724;450.7;0.0198;0.00476;0.000149;0.4703636;350
5726;450.7;0.0198;0.00475;0.000148;0.4703636;350
5728;450.7;0.0198;0.00475;0.000148;0.468;350
5730;450.7;0.0198;0.00475;0.000148;0.4703636;350
5732;450.7;0.0198;0.00475;0.000148;0.468;350
5734;450.7;0.0198;0.00475;0.000148;0.468;350
5736;450.7;0.0198;0.00475;0.000148;0.4656364;350
5738;450.6;0.0198;0.00475;0.000148;0.4656364;350
5740;450.6;0.0198;0.00474;0.000148;0.4703636;350
5742;450.7;0.0198;0.00475;0.000148;0.4703636;350
5744;450.7;0.0198;0.00474;0.000148;0.4703636;350
5746;450.7;0.0198;0.00475;0.000148;0.468;350
5748;450.7;0.0198;0.00475;0.000148;0.468;350
5750;450.7;0.0198;0.00475;0.000148;0.4656364;350
5752;450.7;0.0198;0.00475;0.000148;0.4656364;350
5754;450.6;0.0198;0.00474;0.000148;0.468;350
5756;450.6;0.0198;0.00475;0.000148;0.468;350
5758;450.7;0.0198;0.00474;0.000148;0.4703636;350
5760;450.7;0.0198;0.00475;0.000148;0.4703636;350
5762;450.7;0.0198;0.00475;0.000148;0.4703636;350
5764;450.7;0.0198;0.00475;0.000148;0.468;350
5766;450.7;0.0198;0.00475;0.000148;0.4656364;350
5768;450.7;0.0198;0.00474;0.000148;0.4703636;350
5770;450.7;0.0198;0.00474;0.000148;0.4703636;322
5772;450.7;0.0198;0.00475;0.000148;0.4703636;308
5774;450.7;0.0198;0.00474;0.000148;0.468;287
5776;450.8;0.0198;0.00475;0.000148;0.4727273;287
5778;450.8;0.0198;0.00474;0.000148;0.4703636;280
5780;450.8;0.0198;0.00474;0.000148;0.468;280
5782;450.8;0.0198;0.00474;0.000148;0.468;273
5784;450.7;0.0198;0.00475;0.000148;0.4656364;287
5786;450.7;0.0198;0.00474;0.000148;0.4656364;273
5788;450.6;0.0198;0.00474;0.000148;0.4656364;266
5790;450.6;0.0198;0.00475;0.000148;0.468;294
5792;450.6;0.0198;0.00474;0.000148;0.4703636;315
5794;450.7;0.0198;0.00475;0.000148;0.468;322
5796;450.7;0.0198;0.00475;0.000148;0.468;336
5798;450.7;0.0198;0.00474;0.000148;0.4656364;350
5800;450.7;0.0198;0.00475;0.000148;0.468;350
5802;450.7;0.0198;0.00474;0.000148;0.468;350
5804;450.7;0.0198;0.00474;0.000148;0.4703636;350
5806;450.7;0.0198;0.00474;0.000148;0.4703636;350
5808;450.8;0.0198;0.00474;0.000148;0.4703636;350
5810;450.8;0.0198;0.00474;0.000148;0.4703636;350
5812;450.8;0.0198;0.00474;0.000148;0.468;350
5814;450.8;0.0198;0.00474;0.000148;0.468;350
5816;450.8;0.0198;0.00474;0.000148;0.4656364;350
5818;450.8;0.0198;0.00474;0.000148;0.4656364;350
5820;450.7;0.0198;0.00474;0.000148;0.4656364;350
5822;450.8;0.0198;0.00474;0.000148;0.468;350
5824;450.8;0.0198;0.00474;0.000148;0.4727273;350
5826;450.8;0.0198;0.00474;0.000148;0.4703636;350
5828;450.9;0.0198;0.00474;0.000148;0.4703636;350
5830;450.9;0.0198;0.00474;0.000148;0.468;350
5832;450.9;0.0198;0.00474;0.000148;0.468;350
5834;450.8;0.0198;0.00474;0.000148;0.4656364;350
5836;450.8;0.0198;0.00474;0.000148;0.468;350
5838;450.8;0.0198;0.00474;0.000148;0.4727273;350
5840;450.9;0.0198;0.00474;0.000148;0.4703636;350
5842;450.9;0.0198;0.00474;0.000148;0.4703636;350
5844;450.9;0.0198;0.00474;0.000148;0.468;350
5846;450.9;0.0198;0.00474;0.000148;0.468;350
5848;450.9;0.0198;0.00475;0.000148;0.468;350
5850;450.9;0.0198;0.00474;0.000148;0.468;350
5852;450.8;0.0198;0.00474;0.000148;0.468;350
5854;450.8;0.0198;0.00475;0.000148;0.4656364;350
5856;450.8;0.0198;0.00474;0.000148;0.468;350
5858;450.8;0.0198;0.00474;0.000148;0.4703636;350
5860;450.9;0.0198;0.00474;0.000148;0.4727273;350
5862;451;0.0198;0.00474;0.000148;0.4727273;350
5864;451;0.0198;0.00474;0.000148;0.4703636;343
5866;451;0.0198;0.00475;0.000148;0.4703636;308
5868;451;0.0198;0.00474;0.000148;0.468;301
5870;450.9;0.0198;0.00475;0.000148;0.468;266
5872;450.9;0.0198;0.00474;0.000148;0.4656364;231
5874;450.9;0.0198;0.00474;0.000148;0.468;238
5876;450.9;0.0198;0.00474;0.000148;0.4703636;231
5878;450.9;0.0198;0.00474;0.000148;0.4703636;210
5880;450.9;0.0198;0.00474;0.000148;0.4703636;238
5882;451;0.0198;0.00474;0.000148;0.4703636;231
5884;451;0.0198;0.00474;0.000148;0.4703636;231
5886;451;0.0198;0.00474;0.000148;0.468;273
5888;450.9;0.0198;0.00474;0.000148;0.4656364;308
5890;450.9;0.0198;0.00474;0.000148;0.4656364;308
5892;450.9;0.0198;0.00474;0.000148;0.4656364;350
5894;450.9;0.0198;0.00474;0.000148;0.4703636;350
5896;450.9;0.0198;0.00474;0.000148;0.4703636;350
5898;450.9;0.0198;0.00474;0.000148;0.468;350
5900;450.9;0.0198;0.00475;0.000148;0.4656364;350
5902;450.9;0.0198;0.00474;0.000148;0.4656364;350
5904;450.9;0.0198;0.00475;0.000148;0.468;350
5906;450.9;0.0198;0.00474;0.000148;0.4703636;350
5908;450.9;0.0198;0.00475;0.000148;0.4703636;350
5910;450.9;0.0198;0.00474;0.000148;0.468;350
5912;450.9;0.0198;0.00474;0.000148;0.468;350
5914;450.9;0.0198;0.00474;0.000148;0.468;350
5916;450.9;0.0198;0.00475;0.000148;0.4703636;350
5918;450.9;0.0198;0.00475;0.000148;0.4703636;350
5920;451;0.0198;0.00474;0.000148;0.468;350
5922;451;0.0198;0.00474;0.000148;0.4703636;350
5924;451;0.0198;0.00475;0.000148;0.468;350
5926;451;0.0198;0.00475;0.000148;0.468;350
5928;451;0.0198;0.00474;0.000148;0.468;350
5930;451;0.0198;0.00474;0.000148;0.468;350
5932;450.9;0.0198;0.00474;0.000148;0.4703636;350
5934;451;0.0198;0.00475;0.000148;0.4703636;350
5936;451;0.0198;0.00474;0.000148;0.4703636;350
5938;451;0.0198;0.00475;0.000148;0.468;350
5940;451;0.0198;0.00474;0.000148;0.468;350
5942;451;0.0198;0.00475;0.000148;0.4656364;350
5944;451;0.0198;0.00474;0.000148;0.468;350
5946;450.9;0.0198;0.00475;0.000148;0.468;350
5948;450.9;0.0198;0.00475;0.000148;0.468;350
5950;450.9;0.0198;0.00475;0.000148;0.468;350
5952;451;0.0198;0.00475;0.000148;0.468;350
5954;451;0.0198;0.00475;0.000148;0.4703636;350
5956;451;0.0198;0.00475;0.000148;0.4703636;350
5958;451;0.0198;0.00475;0.000148;0.4703636;350
5960;451;0.0198;0.00475;0.000148;0.468;350
5962;451;0.0198;0.00475;0.000148;0.468;350
5964;451.1;0.0198;0.00475;0.000148;0.4703636;350
5966;451;0.0198;0.00475;0.000148;0.4656364;350
5968;451;0.0198;0.00475;0.000148;0.468;350
5970;451;0.0198;0.00475;0.000148;0.4656364;350
5972;451;0.0198;0.00475;0.000148;0.468;350
5974;451;0.0198;0.00475;0.000148;0.4656364;350
5976;450.9;0.0198;0.00476;0.000149;0.4656364;350
5978;450.9;0.0198;0.00475;0.000148;0.468;350
5980;451;0.0198;0.00475;0.000148;0.468;350
5982;451;0.0198;0.00475;0.000148;0.4727273;350
5984;451;0.0198;0.00475;0.000148;0.4703636;350
5986;451.1;0.0198;0.00475;0.000148;0.4703636;350
5988;451.1;0.0198;0.00475;0.000148;0.4703636;350
5990;451.1;0.0198;0.00475;0.000148;0.468;350
5992;451.1;0.0198;0.00475;0.000148;0.4703636;350
5994;451;0.0198;0.00476;0.000149;0.4656364;350
5996;451;0.0198;0.00474;0.000148;0.468;350
5998;451;0.0198;0.00475;0.000148;0.4656364;350
6000;451;0.0198;0.00475;0.000148;0.4656364;350
6002;451;0.0198;0.00475;0.000148;0.4703636;350
6004;451;0.0198;0.00475;0.000148;0.4703636;350
6006;451.1;0.0198;0.00475;0.000148;0.4703636;350
6008;451.1;0.0198;0.00475;0.000148;0.468;350
6010;451.1;0.0198;0.00475;0.000148;0.468;350
6012;451.1;0.0198;0.00475;0.000148;0.468;350
6014;451.1;0.0198;0.00475;0.000148;0.468;350
6016;451.1;0.0198;0.00475;0.000148;0.468;350
6018;451;0.0198;0.00475;0.000148;0.468;350
6020;451;0.0198;0.00474;0.000148;0.4703636;350
6022;451;0.0198;0.00474;0.000148;0.4703636;350
6024;451;0.0198;0.00475;0.000148;0.4703636;350
6026;451.1;0.0198;0.00475;0.000148;0.4703636;350
6028;451.1;0.0198;0.00475;0.000148;0.468;350
6030;451;0.0198;0.00475;0.000148;0.4656364;315
6032;451;0.0198;0.00475;0.000148;0.468;273
6034;451;0.0198;0.00474;0.000148;0.4703636;238
6036;451.1;0.0198;0.00475;0.000148;0.4703636;238
6038;451.1;0.0198;0.00474;0.000148;0.4703636;238
6040;451.1;0.0198;0.00475;0.000148;0.4703636;210
6042;451.1;0.0198;0.00475;0.000148;0.4703636;238
6044;451.1;0.0198;0.00474;0.000148;0.468;273
6046;451.1;0.0198;0.00475;0.000148;0.468;273
6048;451.1;0.0198;0.00474;0.000148;0.468;308
6050;451.1;0.0198;0.00474;0.000148;0.468;322
6052;451;0.0198;0.00474;0.000148;0.4656364;350
6054;451;0.0198;0.00475;0.000148;0.468;350
6056;451;0.0198;0.00474;0.000148;0.468;350
6058;451;0.0198;0.00475;0.000148;0.468;350
6060;451.1;0.0198;0.00474;0.000148;0.468;350
6062;451.1;0.0198;0.00475;0.000148;0.468;350
6064;451;0.0198;0.00474;0.000148;0.4656364;350
6066;451;0.0198;0.00475;0.000148;0.468;350
6068;451;0.0198;0.00474;0.000148;0.4656364;350
6070;451;0.0198;0.00474;0.000148;0.468;350
6072;451;0.0198;0.00474;0.000148;0.468;350
6074;451;0.0198;0.00474;0.000148;0.468;350
6076;451;0.0198;0.00474;0.000148;0.4703636;350
6078;451.1;0.0198;0.00474;0.000148;0.468;350
6080;451.1;0.0198;0.00473;0.000148;0.4703636;350
6082;451.1;0.0198;0.00474;0.000148;0.468;350
6084;451.1;0.0198;0.00474;0.000148;0.468;350
6086;451;0.0198;0.00474;0.000148;0.4632727;350
6088;451;0.0198;0.00474;0.000148;0.4656364;350
6090;450.9;0.0198;0.00474;0.000148;0.468;350
6092;450.9;0.0198;0.00474;0.000148;0.468;350
6094;451;0.0198;0.00474;0.000148;0.4703636;350
6096;451;0.0198;0.00474;0.000148;0.468;350
6098;451;0.0198;0.00473;0.000148;0.468;350
6100;451;0.0198;0.00474;0.000148;0.4656364;350
6102;451;0.0198;0.00474;0.000148;0.4656364;350
6104;450.9;0.0198;0.00474;0.000148;0.4656364;350
6106;450.9;0.0198;0.00474;0.000148;0.4632727;350
6108;450.9;0.0198;0.00474;0.000148;0.4656364;350
6110;450.9;0.0198;0.00474;0.000148;0.4656364;350
6112;451;0.0198;0.00473;0.000148;0.468;350
6114;450.9;0.0198;0.00474;0.000148;0.468;350
6116;450.9;0.0198;0.00474;0.000148;0.468;350
6118;451;0.0198;0.00474;0.000148;0.468;350
6120;451;0.0198;0.00474;0.000148;0.468;350
6122;451;0.0198;0.00474;0.000148;0.4703636;350
6124;451;0.0198;0.00474;0.000148;0.468;350
6126;451;0.0198;0.00474;0.000148;0.468;350
6128;451;0.0198;0.00474;0.000148;0.468;350
6130;450.9;0.0198;0.00474;0.000148;0.4656364;350
6132;450.9;0.0198;0.00473;0.000148;0.4656364;350
6134;450.9;0.0198;0.00474;0.000148;0.4656364;350
6136;450.9;0.0198;0.00474;0.000148;0.4656364;350
6138;450.9;0.0198;0.00473;0.000148;0.4632727;350
6140;450.8;0.0198;0.00473;0.000148;0.4656364;350
6142;450.9;0.0198;0.00474;0.000148;0.4656364;350
6144;450.9;0.0198;0.00474;0.000148;0.4656364;350
6146;450.9;0.0198;0.00473;0.000148;0.468;350
6148;450.9;0.0198;0.00474;0.000148;0.468;350
6150;451;0.0198;0.00473;0.000148;0.4703636;350
6152;451.1;0.0198;0.00474;0.000148;0.4703636;350
6154;451;0.0198;0.00473;0.000148;0.4703636;350
6156;451;0.0198;0.00474;0.000148;0.468;350
6158;451.1;0.0198;0.00473;0.000148;0.468;350
6160;451;0.0198;0.00473;0.000148;0.468;350
6162;451;0.0198;0.00474;0.000148;0.4632727;350
6164;450.9;0.0198;0.00474;0.000148;0.4656364;350
6166;451;0.0198;0.00473;0.000148;0.468;350
6168;450.9;0.0198;0.00473;0.000148;0.4703636;350
6170;450.9;0.0198;0.00473;0.000148;0.468;350
6172;451;0.0198;0.00474;0.000148;0.4703636;350
6174;451;0.0198;0.00473;0.000148;0.468;350
6176;451;0.0198;0.00474;0.000148;0.468;350
6178;451;0.0198;0.00474;0.000148;0.468;350
6180;451;0.0198;0.00474;0.000148;0.4656364;350
6182;451;0.0198;0.00474;0.000148;0.4656364;350
6184;450.9;0.0198;0.00474;0.000148;0.4656364;350
6186;450.9;0.0198;0.00474;0.000148;0.4656364;343
6188;450.9;0.0198;0.00473;0.000148;0.4656364;322
6190;450.9;0.0198;0.00474;0.000148;0.4656364;287
6192;450.9;0.0198;0.00474;0.000148;0.4656364;280
6194;450.9;0.0198;0.00474;0.000148;0.4656364;245
6196;450.9;0.0198;0.00474;0.000148;0.4656364;217
6198;450.9;0.0198;0.00474;0.000148;0.4656364;231
6200;450.9;0.0198;0.00474;0.000148;0.4656364;231
6202;451;0.0198;0.00473;0.000148;0.468;210
6204;451;0.0198;0.00475;0.000148;0.4656364;238
6206;451;0.0198;0.00474;0.000148;0.468;231
6208;451;0.0198;0.00474;0.000148;0.4656364;245
6210;451;0.0198;0.00474;0.000148;0.468;273
6212;451.1;0.0198;0.00474;0.000148;0.468;308
6214;451.1;0.0198;0.00474;0.000148;0.4656364;308
6216;451.1;0.0198;0.00474;0.000148;0.468;350
6218;451.1;0.0198;0.00474;0.000148;0.4656364;350
6220;451.1;0.0198;0.00474;0.000148;0.468;350
6222;451.1;0.0198;0.00474;0.000148;0.4656364;350
6224;451.1;0.0198;0.00474;0.000148;0.468;350
6226;451.1;0.0198;0.00474;0.000148;0.4656364;350
6228;451.1;0.0198;0.00474;0.000148;0.4656364;350
6230;451.1;0.0198;0.00474;0.000148;0.4656364;350
6232;451.2;0.0198;0.00474;0.000148;0.4656364;350
6234;451.1;0.0198;0.00474;0.000148;0.4656364;350
6236;451;0.0198;0.00474;0.000148;0.4656364;350
6238;451.2;0.0198;0.00474;0.000148;0.4656364;350
6240;451.2;0.0198;0.00474;0.000148;0.4656364;350
6242;451.2;0.0198;0.00474;0.000148;0.468;350
6244;451.1;0.0198;0.00474;0.000148;0.4703636;350
6246;451.3;0.0198;0.00474;0.000148;0.4703636;350
6248;451.3;0.0198;0.00474;0.000148;0.4703636;350
6250;451.3;0.0198;0.00474;0.000148;0.4703636;350
6252;451.3;0.0198;0.00474;0.000148;0.468;350
6254;451.3;0.0198;0.00474;0.000148;0.4656364;350
6256;451.3;0.0198;0.00474;0.000148;0.4656364;350
6258;451.2;0.0198;0.00474;0.000148;0.468;350
6260;451.2;0.0198;0.00474;0.000148;0.468;350
6262;451.2;0.0198;0.00474;0.000148;0.4703636;350
6264;451.3;0.0198;0.00474;0.000148;0.4703636;350
6266;451.3;0.0198;0.00474;0.000148;0.4703636;350
6268;451.3;0.0198;0.00474;0.000148;0.468;350
6270;451.3;0.0198;0.00474;0.000148;0.468;350
6272;451.3;0.0198;0.00474;0.000148;0.468;350
6274;451.3;0.0198;0.00474;0.000148;0.4656364;350
6276;451.3;0.0198;0.00474;0.000148;0.468;350
6278;451.2;0.0198;0.00474;0.000148;0.468;350
6280;451.2;0.0198;0.00474;0.000148;0.4703636;350
6282;451.3;0.0198;0.00474;0.000148;0.4703636;350
6284;451.3;0.0198;0.00474;0.000148;0.468;350
6286;451.3;0.0198;0.00474;0.000148;0.468;350
6288;451.3;0.0198;0.00474;0.000148;0.4656364;350
6290;451.3;0.0198;0.00474;0.000148;0.4656364;350
6292;451.2;0.0198;0.00474;0.000148;0.4656364;350
6294;451.2;0.0198;0.00474;0.000148;0.468;350
6296;451.1;0.0198;0.00474;0.000148;0.468;350
6298;451.3;0.0198;0.00474;0.000148;0.468;350
6300;451.3;0.0198;0.00474;0.000148;0.468;350
6302;451.3;0.0198;0.00474;0.000148;0.468;350
6304;451.3;0.0198;0.00474;0.000148;0.468;350
6306;451.3;0.0198;0.00474;0.000148;0.4656364;350
6308;451.3;0.0198;0.00474;0.000148;0.468;350
6310;451.3;0.0198;0.00474;0.000148;0.468;350
6312;451.3;0.0198;0.00474;0.000148;0.468;350
6314;451.3;0.0198;0.00474;0.000148;0.468;350
6316;451.3;0.0198;0.00474;0.000148;0.468;350
6318;451.3;0.0198;0.00474;0.000148;0.4703636;350
6320;451.4;0.0198;0.00474;0.000148;0.468;350
6322;451.4;0.0198;0.00474;0.000148;0.4727273;350
6324;451.4;0.0198;0.00474;0.000148;0.4703636;350
6326;451.4;0.0198;0.00474;0.000148;0.4703636;350
6328;451.4;0.0198;0.00474;0.000148;0.468;350
6330;451.4;0.0198;0.00474;0.000148;0.4656364;350
6332;451.3;0.0198;0.00474;0.000148;0.4727273;350
6334;451.3;0.0198;0.00474;0.000148;0.4703636;350
6336;451.3;0.0198;0.00474;0.000148;0.468;350
6338;451.3;0.0198;0.00474;0.000148;0.4656364;350
6340;451.3;0.0198;0.00474;0.000148;0.4656364;350
6342;451.2;0.0198;0.00474;0.000148;0.4632727;350
6344;451.2;0.0198;0.00474;0.000148;0.4656364;350
6346;451.2;0.0198;0.00474;0.000148;0.4703636;350
6348;451.2;0.0198;0.00474;0.000148;0.468;350
6350;451.3;0.0198;0.00474;0.000148;0.4703636;350
6352;451.3;0.0198;0.00474;0.000148;0.4656364;350
6354;451.3;0.0198;0.00474;0.000148;0.4656364;350
6356;451.3;0.0198;0.00474;0.000148;0.4656364;350
6358;451.2;0.0198;0.00474;0.000148;0.468;350
6360;451.2;0.0198;0.00474;0.000148;0.468;350
6362;451.3;0.0198;0.00474;0.000148;0.468;350
6364;451.3;0.0198;0.00474;0.000148;0.4703636;350
6366;451.2;0.0198;0.00474;0.000148;0.468;350
6368;451.3;0.0198;0.00474;0.000148;0.468;350
6370;451.3;0.0198;0.00474;0.000148;0.4656364;350
6372;451.3;0.0198;0.00474;0.000148;0.4656364;350
6374;451.3;0.0198;0.00474;0.000148;0.4656364;350
6376;451.3;0.0198;0.00474;0.000148;0.4656364;350
6378;451.2;0.0198;0.00474;0.000148;0.4656364;350
6380;451.2;0.0198;0.00474;0.000148;0.4656364;350
6382;451.3;0.0198;0.00474;0.000148;0.468;350
6384;451.3;0.0198;0.00474;0.000148;0.468;350
6386;451.3;0.0198;0.00474;0.000148;0.468;350
6388;451.4;0.0198;0.00474;0.000148;0.4703636;350
6390;451.3;0.0198;0.00474;0.000148;0.468;350
6392;451.4;0.0198;0.00474;0.000148;0.4703636;350
6394;451.4;0.0198;0.00474;0.000148;0.468;350
6396;451.3;0.0198;0.00474;0.000148;0.4656364;350
6398;451.3;0.0198;0.00474;0.000148;0.4656364;350
6400;451.2;0.0198;0.00474;0.000148;0.4656364;350
6402;451.1;0.0198;0.00474;0.000148;0.468;350
6404;451.2;0.0198;0.00474;0.000148;0.468;350
6406;451.2;0.0198;0.00474;0.000148;0.4703636;350
6408;451.3;0.0198;0.00474;0.000148;0.468;350
6410;451.3;0.0198;0.00474;0.000148;0.468;350
6412;451.3;0.0198;0.00474;0.000148;0.468;350
6414;451.2;0.0198;0.00474;0.000148;0.4632727;336
6416;451.1;0.0198;0.00474;0.000148;0.468;329
6418;451.2;0.0198;0.00474;0.000148;0.468;315
6420;451.2;0.0198;0.00474;0.000148;0.4703636;315
6422;451.2;0.0198;0.00474;0.000148;0.468;315
6424;451.2;0.0198;0.00474;0.000148;0.4656364;336
6426;451.2;0.0198;0.00474;0.000148;0.4656364;336
6428;451.2;0.0198;0.00474;0.000148;0.4656364;350
6430;451.2;0.0198;0.00474;0.000148;0.4703636;343
6432;451.2;0.0198;0.00474;0.000148;0.468;343
6434;451.2;0.0198;0.00474;0.000148;0.468;343
6436;451.2;0.0198;0.00474;0.000148;0.468;343
6438;451.2;0.0198;0.00474;0.000148;0.4656364;343
6440;451.2;0.0198;0.00474;0.000148;0.4656364;350
6442;451.2;0.0198;0.00474;0.000148;0.4656364;350
6444;451.1;0.0198;0.00474;0.000148;0.4656364;350
6446;451.1;0.0198;0.00474;0.000148;0.4656364;350
6448;451.1;0.0198;0.00474;0.000148;0.468;350
6450;451.2;0.0198;0.00474;0.000148;0.468;350
6452;451.2;0.0198;0.00474;0.000148;0.468;350
6454;451.2;0.0198;0.00474;0.000148;0.4656364;350
6456;451.2;0.0198;0.00474;0.000148;0.4656364;350
6458;451.2;0.0198;0.00474;0.000148;0.4656364;350
6460;451.1;0.0198;0.00474;0.000148;0.4656364;350
6462;451.1;0.0198;0.00474;0.000148;0.4703636;350
6464;451.2;0.0198;0.00474;0.000148;0.468;350
6466;451.2;0.0198;0.00474;0.000148;0.468;350
6468;451.2;0.0198;0.00474;0.000148;0.468;350
6470;451.2;0.0198;0.00474;0.000148;0.468;350
6472;451.2;0.0198;0.00474;0.000148;0.468;350
6474;451.2;0.0198;0.00474;0.000148;0.4656364;350
6476;451.2;0.0198;0.00474;0.000148;0.468;350
6478;451.2;0.0198;0.00474;0.000148;0.4656364;350
6480;451.2;0.0198;0.00474;0.000148;0.468;350
6482;451.2;0.0198;0.00474;0.000148;0.468;350
6484;451.2;0.0198;0.00474;0.000148;0.468;350
6486;451.2;0.0198;0.00474;0.000148;0.468;350
6488;451.2;0.0198;0.00474;0.000148;0.4656364;350
6490;451.2;0.0198;0.00474;0.000148;0.468;350
6492;451.2;0.0198;0.00474;0.000148;0.4656364;350
6494;451.2;0.0198;0.00474;0.000148;0.468;350
6496;451.3;0.0198;0.00474;0.000148;0.468;350
6498;451.3;0.0198;0.00474;0.000148;0.468;350
6500;451.3;0.0198;0.00474;0.000148;0.468;350
6502;451.3;0.0198;0.00474;0.000148;0.468;350
6504;451.3;0.0198;0.00474;0.000148;0.468;350
6506;451.3;0.0198;0.00474;0.000148;0.468;350
6508;451.3;0.0198;0.00474;0.000148;0.468;350
6510;451.3;0.0198;0.00474;0.000148;0.4656364;350
6512;451.3;0.0198;0.00474;0.000148;0.4656364;350
6514;451.3;0.0198;0.00474;0.000148;0.468;350
6516;451.3;0.0198;0.00474;0.000148;0.4656364;350
6518;451.3;0.0198;0.00474;0.000148;0.468;350
6520;451.3;0.0198;0.00474;0.000148;0.4656364;350
6522;451.3;0.0198;0.00474;0.000148;0.468;350
6524;451.3;0.0198;0.00474;0.000148;0.468;350
6526;451.4;0.0198;0.00474;0.000148;0.4703636;350
6528;451.5;0.0198;0.00474;0.000148;0.4727273;350
6530;451.5;0.0198;0.00474;0.000148;0.4703636;350
6532;451.5;0.0198;0.00474;0.000148;0.4703636;350
6534;451.5;0.0198;0.00474;0.000148;0.468;350
6536;451.5;0.0198;0.00474;0.000148;0.468;350
6538;451.5;0.0198;0.00474;0.000148;0.4656364;350
6540;451.5;0.0198;0.00474;0.000148;0.4656364;350
6542;451.4;0.0198;0.00474;0.000148;0.468;350
6544;451.5;0.0198;0.00474;0.000148;0.4703636;350
6546;451.5;0.0198;0.00474;0.000148;0.4703636;350
6548;451.5;0.0198;0.00474;0.000148;0.468;350
6550;451.5;0.0198;0.00474;0.000148;0.468;350
6552;451.5;0.0198;0.00474;0.000148;0.4656364;350
6554;451.5;0.0198;0.00474;0.000148;0.4656364;350
6556;451.4;0.0198;0.00474;0.000148;0.468;343
6558;451.4;0.0198;0.00474;0.000148;0.468;343
6560;451.5;0.0198;0.00474;0.000148;0.4703636;343
6562;451.5;0.0198;0.00474;0.000148;0.468;343
6564;451.5;0.0198;0.00474;0.000148;0.468;343
6566;451.5;0.0198;0.00474;0.000148;0.468;350
6568;451.5;0.0198;0.00474;0.000148;0.4656364;350
6570;451.4;0.0198;0.00474;0.000148;0.468;350
6572;451.4;0.0198;0.00474;0.000148;0.4656364;350
6574;451.4;0.0198;0.00474;0.000148;0.468;350
6576;451.4;0.0198;0.00474;0.000148;0.468;350
6578;451.4;0.0198;0.00474;0.000148;0.468;350
6580;451.4;0.0198;0.00474;0.000148;0.4703636;350
6582;451.5;0.0198;0.00474;0.000148;0.468;350
6584;451.5;0.0198;0.00474;0.000148;0.4703636;350
6586;451.5;0.0198;0.00474;0.000148;0.4703636;350
6588;451.5;0.0198;0.00474;0.000148;0.4703636;350
6590;451.5;0.0198;0.00474;0.000148;0.468;350
6592;451.5;0.0198;0.00474;0.000148;0.468;350
6594;451.5;0.0198;0.00474;0.000148;0.468;350
6596;451.5;0.0198;0.00474;0.000148;0.4656364;350
6598;451.4;0.0198;0.00474;0.000148;0.4656364;350
6600;451.4;0.0198;0.00474;0.000148;0.4656364;350
6602;451.3;0.0198;0.00474;0.000148;0.4656364;350
6604;451.3;0.0198;0.00474;0.000148;0.4656364;350
6606;451.4;0.0198;0.00474;0.000148;0.468;350
6608;451.4;0.0198;0.00474;0.000148;0.4703636;350
6610;451.5;0.0198;0.00474;0.000148;0.4703636;350
6612;451.5;0.0198;0.00474;0.000148;0.4727273;350
6614;451.5;0.0198;0.00474;0.000148;0.4727273;350
6616;451.6;0.0198;0.00474;0.000148;0.4703636;350
6618;451.6;0.0198;0.00474;0.000148;0.468;350
6620;451.5;0.0198;0.00474;0.000148;0.468;350
6622;451.5;0.0198;0.00474;0.000148;0.468;350
6624;451.5;0.0198;0.00474;0.000148;0.4703636;350
6626;451.5;0.0198;0.00474;0.000148;0.4727273;350
6628;451.5;0.0198;0.00474;0.000148;0.4703636;350
6630;451.5;0.0198;0.00474;0.000148;0.468;350
