Time [s];T_cat [gradC];n_h2 [mol/s];n_ch4 [mol/s];n_h2_res [mol/s];m_DE [kg/h];Pel [W]
0;451.3;0.0198;0.0048;0.000150;0.4656364;350
2;451.3;0.0197;0.00478;0.000149;0;350
4;451.3;0.0196;0.00476;0.000149;0;350
6;451.4;0.0195;0.00474;0.000148;0;350
8;451.3;0.0194;0.00472;0.000148;0;350
10;451.3;0.0194;0.0047;0.000147;0;350
12;451.3;0.0193;0.00468;0.000146;0;350
14;451.2;0.0192;0.00465;0.000145;0;350
16;451.2;0.0191;0.00463;0.000145;0;350
18;451.1;0.019;0.00461;0.000144;0;350
20;451.1;0.0189;0.00458;0.000143;0;350
22;451.1;0.0188;0.00456;0.000143;0;350
24;451;0.0187;0.00454;0.000142;0;350
26;450.9;0.0186;0.00452;0.000141;0;350
28;450.7;0.0185;0.00449;0.000140;0;350
30;450.6;0.0184;0.00447;0.000140;0;350
32;450.4;0.0183;0.00445;0.000139;0;350
34;450.3;0.0183;0.00443;0.000138;0;350
36;450.1;0.0182;0.0044;0.000138;0;350
38;450;0.0181;0.00438;0.000137;0;350
40;449.9;0.018;0.00436;0.000136;0;350
42;449.9;0.0179;0.00433;0.000135;0;350
44;449.8;0.0178;0.00431;0.000135;0;350
46;449.7;0.0177;0.00429;0.000134;0;350
48;449.6;0.0176;0.00427;0.000133;0;350
50;449.4;0.0175;0.00425;0.000133;0;315
52;449.2;0.0174;0.00422;0.000132;0;294
54;449;0.0173;0.0042;0.000131;0;280
56;448.8;0.0172;0.00418;0.000131;0;238
58;448.5;0.0171;0.00415;0.000130;0;224
60;448.3;0.017;0.00413;0.000129;0;231
62;448.1;0.0169;0.00411;0.000128;0;210
64;447.9;0.0168;0.00408;0.000128;0;224
66;447.8;0.0167;0.00406;0.000127;0;224
68;447.7;0.0166;0.00404;0.000126;0;210
70;447.6;0.0165;0.00401;0.000125;0;224
72;447.5;0.0164;0.00399;0.000125;0;224
74;447.3;0.0163;0.00397;0.000124;0;210
76;447.1;0.0163;0.00394;0.000123;0;224
78;446.8;0.0161;0.00392;0.000123;0;217
80;446.5;0.0161;0.0039;0.000122;0;224
82;446.2;0.016;0.00387;0.000121;0;231
84;446;0.0159;0.00385;0.000120;0;210
86;445.9;0.0158;0.00383;0.000120;0;231
88;445.8;0.0157;0.0038;0.000119;0;273
90;445.6;0.0156;0.00378;0.000118;0;280
92;445.4;0.0155;0.00375;0.000117;0;308
94;445.2;0.0154;0.00373;0.000117;0;343
96;444.8;0.0153;0.00371;0.000116;0;350
98;444.5;0.0152;0.00369;0.000115;0;350
100;444.2;0.0151;0.00366;0.000114;0;350
102;444;0.015;0.00364;0.000114;0;350
104;443.9;0.0149;0.00361;0.000113;0;350
106;443.7;0.0148;0.00359;0.000112;0;350
108;443.4;0.0147;0.00356;0.000111;0;350
110;443.2;0.0146;0.00354;0.000111;0;350
112;442.9;0.0145;0.00352;0.000110;0;350
114;442.5;0.0144;0.00349;0.000109;0;350
116;442.1;0.0143;0.00347;0.000108;0;350
118;441.7;0.0142;0.00344;0.000108;0;350
120;441.5;0.0141;0.00342;0.000107;0;350
122;441.4;0.014;0.00339;0.000106;0;350
124;441.2;0.0139;0.00337;0.000105;0;350
126;441.1;0.0138;0.00335;0.000105;0;350
128;440.8;0.0137;0.00332;0.000104;0;350
130;440.4;0.0136;0.0033;0.000103;0;350
132;440;0.0135;0.00327;0.000102;0;315
134;439.5;0.0134;0.00325;0.000102;0;308
136;439;0.0133;0.00322;0.000101;0;273
138;438.5;0.0132;0.0032;0.000100;0;245
140;437.9;0.0131;0.00317;0.000099;0;231
142;437.6;0.013;0.00315;0.000098;0;224
144;437.4;0.0129;0.00312;0.000098;0;210
146;437.3;0.0128;0.0031;0.000097;0;224
148;437.1;0.0126;0.00307;0.000096;0;217
150;436.8;0.0126;0.00305;0.000095;0;224
152;436.4;0.0124;0.00302;0.000094;0;217
154;436;0.0123;0.003;0.000094;0;210
156;435.6;0.0122;0.00297;0.000093;0;217
158;435;0.0121;0.00295;0.000092;0;210
160;434.3;0.012;0.00292;0.000091;0;210
162;433.8;0.0119;0.0029;0.000091;0;217
164;433.1;0.0118;0.00287;0.000090;0;210
166;432.6;0.0117;0.00284;0.000089;0;210
168;432.3;0.0116;0.00282;0.000088;0;217
170;432;0.0115;0.0028;0.000088;0;210
172;431.9;0.0114;0.00277;0.000087;0;217
174;431.6;0.0113;0.00274;0.000086;0;210
176;431.3;0.0112;0.00272;0.000085;0;217
178;430.8;0.0111;0.00269;0.000084;0;217
180;430.3;0.011;0.00267;0.000083;0;210
182;429.6;0.0109;0.00264;0.000083;0;217
184;429;0.0108;0.00261;0.000082;0;231
186;428.3;0.0106;0.00259;0.000081;0;210
188;427.5;0.0106;0.00256;0.000080;0;231
190;426.6;0.0104;0.00254;0.000079;0;217
192;425.8;0.0103;0.00251;0.000078;0;224
194;425.2;0.0102;0.00248;0.000078;0;224
196;424.7;0.0101;0.00246;0.000077;0;210
198;424.4;0.01;0.00243;0.000076;0;231
200;424.1;0.0099;0.00241;0.000075;0;231
202;423.7;0.00979;0.00238;0.000074;0;238
204;423.2;0.00968;0.00235;0.000073;0;273
206;422.7;0.00957;0.00233;0.000073;0;308
208;422.1;0.00946;0.0023;0.000072;0;308
210;421.5;0.00935;0.00227;0.000071;0;350
212;420.8;0.00924;0.00225;0.000070;0;350
214;419.9;0.00913;0.00222;0.000069;0;350
216;419;0.00902;0.00219;0.000068;0;350
218;418.1;0.00891;0.00217;0.000068;0;350
220;417.5;0.00879;0.00214;0.000067;0;350
222;417.3;0.00868;0.00211;0.000066;0;350
224;417.1;0.00857;0.00208;0.000065;0;315
226;416.6;0.00846;0.00206;0.000064;0;280
228;416.2;0.00835;0.00203;0.000063;0;273
230;416.1;0.00823;0.002;0.000063;0;238
232;416.1;0.00812;0.00198;0.000062;0;210
234;416.1;0.00801;0.00195;0.000061;0;231
236;416.2;0.0079;0.00192;0.000060;0;224
238;416.2;0.00778;0.00189;0.000059;0;217
240;416.1;0.00767;0.00187;0.000058;0;217
242;415.9;0.00756;0.00184;0.000058;0;210
244;415.7;0.00744;0.00181;0.000057;0;217
246;415.3;0.00733;0.00178;0.000056;0;210
248;415;0.00722;0.00176;0.000055;0;210
250;414.5;0.0071;0.00173;0.000054;0;217
252;414;0.00701;0.00171;0.000053;0.1245636;210
254;413.4;0.00701;0.00171;0.000053;0.117;210
256;412.8;0.00701;0.00171;0.000053;0.1108545;203
258;412.2;0.00701;0.00171;0.000053;0.1028182;210
260;411.6;0.00701;0.00171;0.000053;0.0962;196
262;410.9;0.00701;0.00171;0.000053;0.0898182;210
264;410.2;0.00701;0.00171;0.000053;0.0801273;196
266;409.5;0.00701;0.00171;0.000053;0.0872182;196
268;408.9;0.00701;0.00171;0.000053;0.0893455;203
270;408.6;0.00701;0.00171;0.000053;0.0919455;189
272;408.4;0.00701;0.00171;0.000053;0.0931273;210
274;408.3;0.00701;0.00171;0.000053;0.0926545;189
276;408.3;0.00701;0.00171;0.000053;0.0914727;210
278;408.2;0.00701;0.00171;0.000053;0.0881636;189
280;408;0.00701;0.00171;0.000053;0.0858;196
282;407.7;0.00701;0.00171;0.000053;0.0798909;210
284;407.4;0.00701;0.00171;0.000053;0.0754;196
286;407.1;0.00701;0.00171;0.000053;0.0683091;210
288;406.6;0.00701;0.00171;0.000053;0.0624;203
290;406.2;0.00701;0.00171;0.000053;0.0560182;210
292;405.8;0.00701;0.00171;0.000053;0.0491636;203
294;405.2;0.00701;0.00171;0.000053;0.0437273;203
296;404.8;0.00701;0.00171;0.000053;0.0354545;210
298;404.3;0.00701;0.00171;0.000053;0.0307273;203
300;403.8;0.00704;0.00171;0.000053;0.0439636;210
302;403.2;0.00711;0.00173;0.000054;0.0302545;203
304;402.8;0.00718;0.00175;0.000055;0.0286;203
306;402.6;0.00724;0.00176;0.000055;0.0420727;210
308;402.6;0.00732;0.00178;0.000056;0.0557818;203
310;402.7;0.00738;0.0018;0.000056;0.0614545;210
312;402.8;0.00746;0.00181;0.000057;0.0666545;203
314;402.9;0.00752;0.00183;0.000057;0.0640545;210
316;403;0.00759;0.00185;0.000058;0.0645273;210
318;403;0.00766;0.00186;0.000058;0.0576727;210
320;402.9;0.00773;0.00188;0.000059;0.052;210
322;402.8;0.0078;0.0019;0.000059;0.0425455;217
324;402.7;0.00786;0.00191;0.000060;0.0326182;217
326;402.5;0.00793;0.00193;0.000060;0.0223364;210
328;402.3;0.008;0.00195;0.000061;0.0102345;224
330;402.1;0.00806;0.00196;0.000061;0.0022336;217
332;401.9;0.00813;0.00198;0.000062;0;217
334;401.7;0.00821;0.002;0.000063;0;224
336;401.5;0.00827;0.00201;0.000063;0;210
338;401.3;0.00833;0.00203;0.000063;0;224
340;401.1;0.0084;0.00204;0.000064;0;224
342;401;0.00847;0.00206;0.000064;0.0052236;210
344;401;0.00854;0.00208;0.000065;0.01404;224
346;401.2;0.00861;0.00209;0.000065;0.0154818;224
348;401.5;0.00868;0.00211;0.000066;0.0180109;210
350;401.8;0.00874;0.00213;0.000067;0.0147964;231
352;402;0.0088;0.00214;0.000067;0.0139691;217
354;402.2;0.00887;0.00216;0.000068;0.0080127;238
356;402.5;0.00894;0.00217;0.000068;0.0044673;280
358;402.6;0.00901;0.00219;0.000068;0;294
360;402.8;0.00907;0.00221;0.000069;0;315
362;402.9;0.00914;0.00222;0.000069;0;350
364;403;0.00921;0.00224;0.000070;0;350
366;403.1;0.00927;0.00225;0.000070;0;350
368;403.2;0.00934;0.00227;0.000071;0;350
370;403.2;0.0094;0.00229;0.000072;0;315
372;403.2;0.00947;0.0023;0.000072;0.0051527;315
374;403.4;0.00953;0.00232;0.000073;0.0103055;280
376;403.7;0.00961;0.00233;0.000073;0.0151273;238
378;404;0.00967;0.00235;0.000073;0.0167345;238
380;404.2;0.00974;0.00237;0.000074;0.0182473;231
382;404.5;0.0098;0.00238;0.000074;0.0127873;210
384;404.7;0.00986;0.0024;0.000075;0.0097618;224
386;404.9;0.00992;0.00241;0.000075;0.0050818;217
388;405;0.01;0.00243;0.000076;0;210
390;405.1;0.0101;0.00245;0.000077;0;224
392;405.1;0.0101;0.00246;0.000077;0;210
394;405.1;0.0102;0.00248;0.000078;0;224
396;405.1;0.0103;0.00249;0.000078;0;217
398;405.1;0.0103;0.00251;0.000078;0;210
400;404.8;0.0104;0.00252;0.000079;0;217
402;404.7;0.0104;0.00254;0.000079;0.0086982;210
404;404.7;0.0105;0.00255;0.000080;0.0121018;210
406;404.7;0.0106;0.00257;0.000080;0.0126455;210
408;404.9;0.0106;0.00259;0.000081;0.0125036;210
410;405;0.0107;0.0026;0.000081;0.0068782;210
412;405.1;0.0108;0.00262;0.000082;0.0040418;210
414;405.2;0.0108;0.00263;0.000082;0;210
416;405.3;0.0109;0.00265;0.000083;0;217
418;405.4;0.011;0.00266;0.000083;0;210
420;405.4;0.011;0.00268;0.000084;0;217
422;405.4;0.0111;0.0027;0.000084;0;217
424;405.4;0.0112;0.00271;0.000085;0;210
426;405.4;0.0112;0.00273;0.000085;0;217
428;405.1;0.0113;0.00274;0.000086;0;210
430;404.9;0.0113;0.00276;0.000086;0;217
432;404.8;0.0114;0.00277;0.000087;0;224
434;404.8;0.0115;0.00279;0.000087;0.0020351;210
436;404.9;0.0115;0.0028;0.000088;0;224
438;405.1;0.0116;0.00282;0.000088;0;224
440;405.2;0.0117;0.00283;0.000088;0;210
442;405.3;0.0117;0.00285;0.000089;0;224
444;405.4;0.0118;0.00286;0.000089;0;210
446;405.4;0.0118;0.00288;0.000090;0;224
448;405.5;0.0119;0.00289;0.000090;0;231
450;405.6;0.012;0.00291;0.000091;0;210
452;405.4;0.012;0.00292;0.000091;0;231
454;405.1;0.0121;0.00294;0.000092;0;252
456;405;0.0122;0.00296;0.000093;0.0021296;259
458;405.1;0.0122;0.00297;0.000093;0.0033564;287
460;405.2;0.0123;0.00299;0.000093;0;329
462;405.4;0.0123;0.003;0.000094;0.0009691;329
464;405.6;0.0124;0.00301;0.000094;0;350
466;405.8;0.0125;0.00303;0.000095;0;350
468;405.9;0.0125;0.00305;0.000095;0;350
470;406;0.0126;0.00306;0.000096;0;350
472;406.1;0.0127;0.00308;0.000096;0;350
474;406.2;0.0127;0.00309;0.000097;0;350
476;406.3;0.0128;0.00311;0.000097;0;350
478;406.1;0.0128;0.00312;0.000098;0;350
480;406.2;0.0129;0.00314;0.000098;0.0069255;322
482;407;0.013;0.00315;0.000098;0.0138982;315
484;407.8;0.013;0.00317;0.000099;0.0188855;280
486;408.5;0.0131;0.00318;0.000099;0.0222655;252
488;409.1;0.0132;0.0032;0.000100;0.0200436;238
490;409.6;0.0132;0.00321;0.000100;0.0243455;224
492;410;0.0133;0.00322;0.000101;0.0183182;217
494;410.5;0.0133;0.00324;0.000101;0.0182;224
496;411;0.0134;0.00325;0.000102;0.0151036;210
498;411.4;0.0135;0.00327;0.000102;0.0143;217
500;411.9;0.0135;0.00328;0.000103;0.0269455;224
502;412.7;0.0136;0.0033;0.000103;0.0399455;210
504;413.4;0.0136;0.00331;0.000103;0.0477455;217
506;414;0.0137;0.00333;0.000104;0.0496364;217
508;414.7;0.0138;0.00334;0.000104;0.0536545;210
510;415.3;0.0138;0.00336;0.000105;0.0512909;217
512;415.7;0.0139;0.00337;0.000105;0.0529455;210
514;416.2;0.0139;0.00339;0.000106;0.0505818;217
516;416.6;0.014;0.0034;0.000106;0.0496364;217
518;417;0.0141;0.00342;0.000107;0.0501091;210
520;417.5;0.0141;0.00343;0.000107;0.0543636;217
522;418.1;0.0142;0.00345;0.000108;0.0711455;217
524;418.8;0.0143;0.00346;0.000108;0.0772909;217
526;419.4;0.0143;0.00347;0.000108;0.0843818;224
528;419.9;0.0144;0.00349;0.000109;0.0855636;210
530;420.4;0.0144;0.0035;0.000109;0.0843818;224
532;420.8;0.0145;0.00352;0.000110;0.0836727;224
534;421.2;0.0146;0.00353;0.000110;0.0808364;210
536;421.5;0.0146;0.00355;0.000111;0.0801273;231
538;421.8;0.0147;0.00356;0.000111;0.0749273;273
540;422.1;0.0147;0.00358;0.000112;0.0806;273
542;422.7;0.0148;0.00359;0.000112;0.0940727;315
544;423.3;0.0149;0.00361;0.000113;0.1044727;343
546;423.9;0.0149;0.00362;0.000113;0.1110909;350
548;424.6;0.015;0.00363;0.000113;0.1148727;350
550;425;0.015;0.00365;0.000114;0.1160545;350
552;425.4;0.0151;0.00366;0.000114;0.1127455;350
554;425.8;0.0151;0.00368;0.000115;0.1146364;350
556;426.1;0.0152;0.00369;0.000115;0.1092;350
558;426.5;0.0153;0.00371;0.000116;0.1089636;350
560;426.8;0.0153;0.00372;0.000116;0.1115636;350
562;427.4;0.0154;0.00373;0.000117;0.1257455;350
564;428;0.0154;0.00375;0.000117;0.1385091;350
566;428.6;0.0155;0.00376;0.000118;0.1418182;350
568;429.2;0.0156;0.00378;0.000118;0.1489091;350
570;429.7;0.0156;0.00379;0.000118;0.1463091;350
572;430.1;0.0157;0.00381;0.000119;0.1446545;350
574;430.5;0.0157;0.00382;0.000119;0.1448909;350
576;430.8;0.0158;0.00384;0.000120;0.1420545;322
578;431.2;0.0159;0.00385;0.000120;0.1422909;315
580;431.5;0.0159;0.00386;0.000121;0.1482;273
582;432.2;0.016;0.00388;0.000121;0.1633273;252
584;432.8;0.016;0.00389;0.000122;0.1699455;231
586;433.4;0.0161;0.00391;0.000122;0.1770364;217
588;433.9;0.0161;0.00392;0.000123;0.1784545;217
590;434.4;0.0162;0.00393;0.000123;0.1808182;224
592;435;0.0163;0.00395;0.000123;0.1827091;210
594;435.4;0.0163;0.00396;0.000124;0.1815273;224
596;435.8;0.0164;0.00398;0.000124;0.1836545;224
598;436.2;0.0164;0.00399;0.000125;0.1838909;210
600;436.7;0.0165;0.004;0.000125;0.1883818;224
602;437.2;0.0166;0.00402;0.000126;0.2011455;217
604;437.8;0.0166;0.00403;0.000126;0.2087091;217
606;438.4;0.0167;0.00404;0.000126;0.2172182;224
608;439;0.0167;0.00406;0.000127;0.2181636;217
610;439.5;0.0168;0.00407;0.000127;0.2231273;224
612;440.1;0.0168;0.00409;0.000128;0.2247818;231
614;440.5;0.0169;0.0041;0.000128;0.2306909;224
616;441;0.017;0.00411;0.000128;0.2311636;252
618;441.5;0.017;0.00413;0.000129;0.234;287
620;441.9;0.0171;0.00414;0.000129;0.2361273;294
622;442.4;0.0171;0.00416;0.000130;0.2387273;329
624;442.9;0.0172;0.00417;0.000130;0.2458182;350
626;443.4;0.0172;0.00418;0.000131;0.2505455;350
628;444;0.0173;0.0042;0.000131;0.2670909;350
630;444.6;0.0174;0.00421;0.000132;0.2718182;350
632;445.2;0.0174;0.00423;0.000132;0.2789091;350
634;445.8;0.0175;0.00424;0.000133;0.2812727;350
636;446.2;0.0175;0.00425;0.000133;0.2812727;350
638;446.7;0.0176;0.00427;0.000133;0.2836364;350
640;447.1;0.0176;0.00428;0.000134;0.2836364;350
642;447.5;0.0177;0.0043;0.000134;0.2907273;350
644;448;0.0178;0.00431;0.000135;0.3001818;350
646;448.6;0.0178;0.00432;0.000135;0.312;350
648;449.3;0.0179;0.00434;0.000136;0.3167273;350
650;449.7;0.0179;0.00435;0.000136;0.3190909;350
652;450.3;0.018;0.00436;0.000136;0.3238182;350
654;450.8;0.018;0.00438;0.000137;0.3238182;350
656;451.3;0.0181;0.00439;0.000137;0.3285455;350
658;451.7;0.0182;0.0044;0.000138;0.3285455;350
660;452.1;0.0182;0.00442;0.000138;0.3332727;350
662;452.6;0.0183;0.00443;0.000138;0.3450909;350
664;453.2;0.0183;0.00444;0.000139;0.3545455;350
666;453.7;0.0184;0.00446;0.000139;0.364;350
668;454.3;0.0184;0.00447;0.000140;0.3663636;350
670;454.9;0.0185;0.00448;0.000140;0.3758182;350
672;455.5;0.0185;0.0045;0.000141;0.3781818;350
674;455.9;0.0186;0.00451;0.000141;0.3852727;350
676;456.4;0.0187;0.00453;0.000142;0.3876364;350
678;457;0.0187;0.00454;0.000142;0.3923636;350
680;457.4;0.0188;0.00455;0.000142;0.3970909;315
682;457.9;0.0188;0.00456;0.000143;0.3994545;315
684;458.4;0.0189;0.00458;0.000143;0.4089091;273
686;458.8;0.0189;0.00459;0.000143;0.4089091;245
688;459.3;0.019;0.00461;0.000144;0.4183636;238
690;459.8;0.019;0.00462;0.000144;0.4207273;231
692;460.2;0.0191;0.00463;0.000145;0.4254545;210
694;460.8;0.0192;0.00465;0.000145;0.4372727;231
696;461.4;0.0192;0.00466;0.000146;0.4467273;224
698;462;0.0193;0.00467;0.000146;0.4585455;210
700;462.5;0.0193;0.00469;0.000147;0.4585455;231
702;462.9;0.0194;0.0047;0.000147;0.4656364;231
704;463.5;0.0194;0.00471;0.000147;0.4656364;245
706;463.9;0.0195;0.00473;0.000148;0.4703636;287
708;464.2;0.0195;0.00474;0.000148;0.4750909;301
710;464.7;0.0196;0.00475;0.000148;0.4821818;322
712;465.1;0.0196;0.00476;0.000149;0.494;350
714;465.6;0.0197;0.00478;0.000149;0.4987273;350
716;466.1;0.0198;0.00479;0.000150;0.5058182;350
718;466.5;0.0198;0.0048;0.000150;0.2552727;350
720;467;0.0198;0.0048;0.000150;0.2576364;350
722;467.4;0.0198;0.0048;0.000150;0.26;350
724;467.7;0.0198;0.0048;0.000150;0.26;350
726;468;0.0198;0.0048;0.000150;0.2623636;350
728;468.3;0.0198;0.0048;0.000150;0.2647273;350
730;468.6;0.0198;0.0048;0.000150;0.2647273;350
732;469;0.0198;0.0048;0.000150;0.2694545;350
734;469.3;0.0198;0.0048;0.000150;0.2718182;350
736;469.7;0.0198;0.0048;0.000150;0.2741818;350
738;470;0.0198;0.0048;0.000150;0.2765455;350
740;470.3;0.0198;0.0048;0.000150;0.2812727;350
742;470.6;0.0198;0.0048;0.000150;0.2812727;350
744;470.8;0.0198;0.0048;0.000150;0.2836364;350
746;471.1;0.0198;0.0048;0.000150;0.2836364;350
748;471.3;0.0198;0.0048;0.000150;0.2836364;350
750;471.5;0.0198;0.0048;0.000150;0.286;350
752;471.6;0.0198;0.0048;0.000150;0.286;350
754;471.8;0.0198;0.0048;0.000150;0.2883636;350
756;472;0.0198;0.0048;0.000150;0.2883636;350
758;472.1;0.0198;0.0048;0.000150;0.2930909;350
760;472.3;0.0198;0.00448;0.000140;0.2978182;350
762;472.6;0.0198;0.00448;0.000140;0.2978182;350
764;472.8;0.0198;0.00447;0.000140;0.3001818;350
766;473.1;0.0198;0.00448;0.000140;0.3001818;350
768;473.2;0.0198;0.00447;0.000140;0.3001818;350
770;473.3;0.0198;0.00447;0.000140;0.2978182;350
772;473.4;0.0198;0.00448;0.000140;0.3001818;350
774;473.5;0.0198;0.00449;0.000140;0.3025455;350
776;473.7;0.0198;0.00449;0.000140;0.3072727;350
778;473.9;0.0198;0.0045;0.000141;0.3096364;350
780;474.1;0.0198;0.0045;0.000141;0.3096364;350
782;474.2;0.0198;0.00451;0.000141;0.312;350
784;474.4;0.0198;0.00451;0.000141;0.312;350
786;474.5;0.0198;0.00452;0.000141;0.312;350
788;474.7;0.0198;0.00454;0.000142;0.312;350
790;474.8;0.0198;0.00456;0.000143;0.3143636;350
792;474.9;0.0198;0.00456;0.000143;0.3190909;350
794;475.1;0.0198;0.00456;0.000143;0.3214545;350
796;475.3;0.0198;0.00458;0.000143;0.3238182;350
798;475.5;0.0198;0.00458;0.000143;0.3214545;350
800;475.6;0.0198;0.00459;0.000143;0.3238182;350
802;475.7;0.0198;0.00459;0.000143;0.3238182;350
804;475.9;0.0198;0.0046;0.000144;0.3261818;350
806;476;0.0198;0.00462;0.000144;0.3261818;350
808;476.1;0.0198;0.00462;0.000144;0.3261818;350
810;476.3;0.0198;0.00462;0.000144;0.3309091;350
812;476.4;0.0198;0.00463;0.000145;0.3309091;350
814;476.6;0.0198;0.00463;0.000145;0.3356364;350
816;476.7;0.0198;0.00464;0.000145;0.3356364;350
818;476.9;0.0198;0.00463;0.000145;0.3403636;350
820;477.1;0.0198;0.00464;0.000145;0.3427273;350
822;477.3;0.0198;0.00463;0.000145;0.3403636;350
824;477.4;0.0198;0.00464;0.000145;0.3427273;350
826;477.6;0.0198;0.00463;0.000145;0.3403636;350
828;477.6;0.0198;0.00463;0.000145;0.3403636;350
830;477.7;0.0198;0.00463;0.000145;0.3450909;350
832;477.8;0.0198;0.00463;0.000145;0.3474545;350
834;478;0.0198;0.00464;0.000145;0.3521818;350
836;478.1;0.0198;0.00463;0.000145;0.3521818;350
838;478.3;0.0198;0.00464;0.000145;0.3545455;350
840;478.5;0.0198;0.00464;0.000145;0.3521818;350
842;478.6;0.0198;0.00464;0.000145;0.3521818;350
844;478.7;0.0198;0.00464;0.000145;0.3545455;350
846;478.7;0.0198;0.00464;0.000145;0.3569091;350
848;478.8;0.0198;0.00464;0.000145;0.3616364;350
850;478.9;0.0198;0.00464;0.000145;0.3616364;350
852;479;0.0198;0.00465;0.000145;0.364;350
854;479.2;0.0198;0.00465;0.000145;0.3616364;350
856;479.3;0.0198;0.00465;0.000145;0.3616364;350
858;479.3;0.0198;0.00465;0.000145;0.3616364;350
860;479.4;0.0198;0.00465;0.000145;0.3663636;350
862;479.4;0.0198;0.00465;0.000145;0.3710909;350
864;479.5;0.0198;0.00466;0.000146;0.3710909;350
866;479.6;0.0198;0.00466;0.000146;0.3734545;350
868;479.7;0.0198;0.00467;0.000146;0.3734545;350
870;479.8;0.0198;0.00466;0.000146;0.3758182;350
872;479.9;0.0198;0.00466;0.000146;0.3758182;350
874;480;0.0198;0.00466;0.000146;0.3734545;350
876;480;0.0198;0.00467;0.000146;0.3758182;350
878;480;0.0198;0.00467;0.000146;0.3758182;350
880;480;0.0198;0.00468;0.000146;0.3781818;350
882;480;0.0198;0.00468;0.000146;0.3758182;350
884;480;0.0198;0.00468;0.000146;0.3781818;350
886;480;0.0198;0.00469;0.000147;0.3805455;350
888;480;0.0198;0.00468;0.000146;0.3829091;350
890;480.1;0.0198;0.00468;0.000146;0.3852727;350
892;480.1;0.0198;0.00469;0.000147;0.3852727;350
894;480.2;0.0198;0.0047;0.000147;0.3876364;350
896;480.3;0.0198;0.00469;0.000147;0.3876364;350
898;480.3;0.0198;0.0047;0.000147;0.3876364;350
900;480.3;0.0198;0.0047;0.000147;0.39;350
902;480.2;0.0198;0.0047;0.000147;0.3876364;350
904;480.2;0.0198;0.00469;0.000147;0.3876364;350
906;480.1;0.0198;0.0047;0.000147;0.3923636;350
908;480.1;0.0198;0.0047;0.000147;0.3923636;350
910;480.2;0.0198;0.00471;0.000147;0.3923636;350
912;480.2;0.0198;0.0047;0.000147;0.3923636;350
914;480.1;0.0198;0.00471;0.000147;0.3923636;350
916;480.1;0.0198;0.0047;0.000147;0.3947273;350
918;480.1;0.0198;0.0047;0.000147;0.3994545;350
920;480.1;0.0198;0.00471;0.000147;0.3994545;350
922;480.1;0.0198;0.0047;0.000147;0.4018182;350
924;480.2;0.0198;0.00471;0.000147;0.3994545;350
926;480.1;0.0198;0.00471;0.000147;0.4018182;350
928;480.1;0.0198;0.00471;0.000147;0.3994545;350
930;480.1;0.0198;0.00471;0.000147;0.3994545;350
932;480;0.0198;0.00471;0.000147;0.4018182;350
934;480;0.0198;0.00471;0.000147;0.3994545;350
936;479.9;0.0198;0.00471;0.000147;0.4041818;350
938;479.9;0.0198;0.00471;0.000147;0.4065455;350
940;479.9;0.0198;0.00471;0.000147;0.4065455;350
942;480;0.0198;0.00472;0.000148;0.4089091;350
944;480;0.0198;0.00472;0.000148;0.4065455;350
946;480;0.0198;0.00471;0.000147;0.4065455;350
948;480;0.0198;0.00472;0.000148;0.4065455;350
950;480;0.0198;0.00471;0.000147;0.4089091;350
952;479.9;0.0198;0.00472;0.000148;0.4112727;350
954;479.9;0.0198;0.00472;0.000148;0.416;350
956;479.9;0.0198;0.00472;0.000148;0.4136364;350
958;479.9;0.0198;0.00472;0.000148;0.4136364;350
960;479.9;0.0198;0.00471;0.000147;0.4136364;350
962;479.8;0.0198;0.00472;0.000148;0.4112727;350
964;479.7;0.0198;0.00472;0.000148;0.4136364;350
966;479.5;0.0198;0.00473;0.000148;0.416;350
968;479.4;0.0198;0.00472;0.000148;0.416;350
970;479.3;0.0198;0.00472;0.000148;0.416;350
972;479.2;0.0198;0.00472;0.000148;0.4183636;350
974;479;0.0198;0.00472;0.000148;0.4183636;350
976;478.9;0.0198;0.00473;0.000148;0.416;350
978;478.7;0.0198;0.00472;0.000148;0.416;350
980;478.6;0.0198;0.00473;0.000148;0.416;350
982;478.4;0.0198;0.00473;0.000148;0.416;350
984;478.2;0.0198;0.00472;0.000148;0.416;350
986;478.1;0.0198;0.00472;0.000148;0.416;350
988;477.9;0.0198;0.00472;0.000148;0.4183636;350
990;477.8;0.0198;0.00472;0.000148;0.4183636;350
992;477.7;0.0198;0.00473;0.000148;0.4207273;350
994;477.6;0.0198;0.00472;0.000148;0.4183636;350
996;477.5;0.0198;0.00473;0.000148;0.4207273;350
998;477.4;0.0198;0.00472;0.000148;0.4207273;350
1000;477.3;0.0198;0.00473;0.000148;0.4207273;350
1002;477.2;0.0198;0.00472;0.000148;0.4207273;350
1004;477;0.0198;0.00473;0.000148;0.4207273;350
1006;476.8;0.0198;0.00473;0.000148;0.4183636;350
1008;476.6;0.0198;0.00473;0.000148;0.416;350
1010;476.4;0.0198;0.00473;0.000148;0.416;350
1012;476.2;0.0198;0.00473;0.000148;0.416;350
1014;476.1;0.0198;0.00473;0.000148;0.4183636;350
1016;476;0.0198;0.00473;0.000148;0.4207273;350
1018;475.9;0.0198;0.00474;0.000148;0.4207273;350
1020;475.8;0.0198;0.00473;0.000148;0.4230909;350
1022;475.7;0.0198;0.00473;0.000148;0.4207273;350
1024;475.6;0.0198;0.00473;0.000148;0.4207273;350
1026;475.4;0.0198;0.00473;0.000148;0.4183636;350
1028;475.3;0.0198;0.00473;0.000148;0.4207273;350
1030;475.1;0.0198;0.00473;0.000148;0.4207273;350
1032;474.9;0.0198;0.00473;0.000148;0.4183636;350
1034;474.7;0.0198;0.00474;0.000148;0.4207273;350
1036;474.6;0.0198;0.00473;0.000148;0.4183636;350
1038;474.5;0.0198;0.00474;0.000148;0.4207273;350
1040;474.3;0.0198;0.00473;0.000148;0.4207273;350
1042;474.2;0.0198;0.00473;0.000148;0.4230909;350
1044;474.1;0.0198;0.00473;0.000148;0.4254545;350
1046;474.1;0.0198;0.00473;0.000148;0.4254545;350
1048;474;0.0198;0.00474;0.000148;0.4254545;350
1050;473.9;0.0198;0.00473;0.000148;0.4230909;350
1052;473.8;0.0198;0.00474;0.000148;0.4230909;350
1054;473.7;0.0198;0.00473;0.000148;0.4230909;350
1056;473.5;0.0198;0.00474;0.000148;0.4230909;350
1058;473.4;0.0198;0.00474;0.000148;0.4207273;350
1060;473.2;0.0198;0.00474;0.000148;0.4207273;350
1062;473.1;0.0198;0.00474;0.000148;0.4207273;329
1064;472.9;0.0198;0.00474;0.000148;0.4207273;287
1066;472.8;0.0198;0.00474;0.000148;0.4254545;287
1068;472.8;0.0198;0.00473;0.000148;0.4254545;259
1070;472.8;0.0198;0.00473;0.000148;0.4254545;266
1072;472.7;0.0198;0.00474;0.000148;0.4254545;280
1074;472.6;0.0198;0.00474;0.000148;0.4230909;322
1076;472.4;0.0198;0.00474;0.000148;0.4230909;329
1078;472.3;0.0198;0.00474;0.000148;0.4207273;350
1080;472.2;0.0198;0.00474;0.000148;0.4230909;350
1082;472;0.0198;0.00474;0.000148;0.4254545;350
1084;471.9;0.0198;0.00474;0.000148;0.4254545;350
1086;471.9;0.0198;0.00475;0.000148;0.4254545;350
1088;471.8;0.0198;0.00474;0.000148;0.4254545;350
1090;471.7;0.0198;0.00474;0.000148;0.4278182;350
1092;471.6;0.0198;0.00474;0.000148;0.4254545;350
1094;471.5;0.0198;0.00474;0.000148;0.4254545;350
1096;471.4;0.0198;0.00474;0.000148;0.4254545;350
1098;471.3;0.0198;0.00474;0.000148;0.4278182;350
1100;471.2;0.0198;0.00475;0.000148;0.4254545;350
1102;471;0.0198;0.00474;0.000148;0.4254545;350
1104;470.9;0.0198;0.00474;0.000148;0.4254545;350
1106;470.8;0.0198;0.00474;0.000148;0.4254545;350
1108;470.7;0.0198;0.00474;0.000148;0.4254545;350
1110;470.6;0.0198;0.00475;0.000148;0.4230909;350
1112;470.5;0.0198;0.00474;0.000148;0.4254545;350
1114;470.4;0.0198;0.00474;0.000148;0.4230909;350
1116;470.3;0.0198;0.00474;0.000148;0.4254545;350
1118;470.2;0.0198;0.00474;0.000148;0.4254545;350
1120;470.1;0.0198;0.00475;0.000148;0.4254545;350
1122;470;0.0198;0.00474;0.000148;0.4254545;350
1124;469.9;0.0198;0.00475;0.000148;0.4254545;350
1126;469.9;0.0198;0.00474;0.000148;0.4278182;350
1128;469.8;0.0198;0.00475;0.000148;0.4278182;350
1130;469.7;0.0198;0.00474;0.000148;0.4301818;350
1132;469.7;0.0198;0.00475;0.000148;0.4301818;350
1134;469.6;0.0198;0.00474;0.000148;0.4301818;350
1136;469.6;0.0198;0.00474;0.000148;0.4325455;350
1138;469.5;0.0198;0.00475;0.000148;0.4301818;350
1140;469.5;0.0198;0.00475;0.000148;0.4325455;350
1142;469.4;0.0198;0.00475;0.000148;0.4325455;350
1144;469.4;0.0198;0.00475;0.000148;0.4325455;350
1146;469.3;0.0198;0.00474;0.000148;0.4301818;350
1148;469.3;0.0198;0.00474;0.000148;0.4325455;350
1150;469.2;0.0198;0.00474;0.000148;0.4301818;350
1152;469.1;0.0198;0.00474;0.000148;0.4301818;350
1154;469.1;0.0198;0.00474;0.000148;0.4325455;350
1156;469;0.0198;0.00474;0.000148;0.4301818;350
1158;468.9;0.0198;0.00474;0.000148;0.4325455;350
1160;468.9;0.0198;0.00474;0.000148;0.4301818;350
1162;468.8;0.0198;0.00475;0.000148;0.4301818;350
1164;468.8;0.0198;0.00474;0.000148;0.4325455;350
1166;468.8;0.0198;0.00475;0.000148;0.4325455;350
1168;468.7;0.0198;0.00474;0.000148;0.4349091;350
1170;468.7;0.0198;0.00474;0.000148;0.4349091;350
1172;468.7;0.0198;0.00474;0.000148;0.4372727;350
1174;468.7;0.0198;0.00475;0.000148;0.4372727;350
1176;468.7;0.0198;0.00475;0.000148;0.4372727;350
1178;468.7;0.0198;0.00475;0.000148;0.4372727;350
1180;468.6;0.0198;0.00475;0.000148;0.4372727;350
1182;468.6;0.0198;0.00475;0.000148;0.4372727;350
1184;468.5;0.0198;0.00474;0.000148;0.4349091;350
1186;468.4;0.0198;0.00474;0.000148;0.4349091;350
1188;468.3;0.0198;0.00475;0.000148;0.4349091;350
1190;468.3;0.0198;0.00474;0.000148;0.4396364;350
1192;468.3;0.0198;0.00475;0.000148;0.4396364;350
1194;468.3;0.0198;0.00474;0.000148;0.4396364;350
1196;468.3;0.0198;0.00475;0.000148;0.4396364;350
1198;468.2;0.0198;0.00475;0.000148;0.4396364;350
1200;468.2;0.0198;0.00475;0.000148;0.4396364;350
1202;468.1;0.0198;0.00474;0.000148;0.4372727;350
1204;468;0.0198;0.00474;0.000148;0.4396364;350
1206;467.9;0.0198;0.00474;0.000148;0.4396364;350
1208;467.8;0.0198;0.00474;0.000148;0.442;350
1210;467.8;0.0198;0.00475;0.000148;0.4443636;350
1212;467.8;0.0198;0.00475;0.000148;0.442;350
1214;467.8;0.0198;0.00474;0.000148;0.442;350
1216;467.7;0.0198;0.00474;0.000148;0.442;350
1218;467.6;0.0198;0.00474;0.000148;0.4396364;350
1220;467.5;0.0198;0.00474;0.000148;0.442;350
1222;467.4;0.0198;0.00475;0.000148;0.442;350
1224;467.4;0.0198;0.00474;0.000148;0.4467273;350
1226;467.4;0.0198;0.00474;0.000148;0.4443636;350
1228;467.3;0.0198;0.00474;0.000148;0.4467273;350
1230;467.3;0.0198;0.00474;0.000148;0.4443636;350
1232;467.2;0.0198;0.00474;0.000148;0.4443636;350
1234;467.1;0.0198;0.00475;0.000148;0.442;350
1236;467;0.0198;0.00474;0.000148;0.442;350
1238;466.8;0.0198;0.00474;0.000148;0.4396364;329
1240;466.7;0.0198;0.00474;0.000148;0.4443636;301
1242;466.6;0.0198;0.00474;0.000148;0.4467273;287
1244;466.6;0.0198;0.00474;0.000148;0.4443636;252
1246;466.6;0.0198;0.00473;0.000148;0.4467273;231
1248;466.5;0.0198;0.00475;0.000148;0.4443636;238
1250;466.4;0.0198;0.00473;0.000148;0.4443636;252
1252;466.4;0.0198;0.00474;0.000148;0.442;266
1254;466.2;0.0198;0.00474;0.000148;0.442;301
1256;466.2;0.0198;0.00474;0.000148;0.4467273;322
1258;466.1;0.0198;0.00474;0.000148;0.4467273;336
1260;466.1;0.0198;0.00474;0.000148;0.4467273;350
1262;466.1;0.0198;0.00474;0.000148;0.4443636;350
1264;466;0.0198;0.00473;0.000148;0.4467273;350
1266;466;0.0198;0.00474;0.000148;0.4443636;350
1268;465.9;0.0198;0.00474;0.000148;0.4467273;350
1270;465.8;0.0198;0.00474;0.000148;0.4467273;350
1272;465.8;0.0198;0.00474;0.000148;0.4490909;350
1274;465.8;0.0198;0.00474;0.000148;0.4490909;350
1276;465.8;0.0198;0.00474;0.000148;0.4490909;350
1278;465.8;0.0198;0.00474;0.000148;0.4490909;350
1280;465.8;0.0198;0.00474;0.000148;0.4490909;350
1282;465.7;0.0198;0.00475;0.000148;0.4467273;350
1284;465.6;0.0198;0.00474;0.000148;0.4467273;350
1286;465.6;0.0198;0.00474;0.000148;0.4467273;350
1288;465.5;0.0198;0.00474;0.000148;0.4490909;350
1290;465.5;0.0198;0.00475;0.000148;0.4514545;350
1292;465.5;0.0198;0.00474;0.000148;0.4538182;350
1294;465.5;0.0198;0.00474;0.000148;0.4514545;350
1296;465.5;0.0198;0.00474;0.000148;0.4514545;350
1298;465.5;0.0198;0.00475;0.000148;0.4514545;350
1300;465.5;0.0198;0.00474;0.000148;0.4490909;350
1302;465.4;0.0198;0.00474;0.000148;0.4490909;350
1304;465.3;0.0198;0.00474;0.000148;0.4490909;350
1306;465.3;0.0198;0.00475;0.000148;0.4538182;350
1308;465.3;0.0198;0.00474;0.000148;0.4538182;350
1310;465.3;0.0198;0.00474;0.000148;0.4561818;350
1312;465.3;0.0198;0.00475;0.000148;0.4538182;350
1314;465.3;0.0198;0.00474;0.000148;0.4538182;350
1316;465.3;0.0198;0.00475;0.000148;0.4538182;350
1318;465.2;0.0198;0.00475;0.000148;0.4514545;350
1320;465.1;0.0198;0.00475;0.000148;0.4561818;350
1322;465.1;0.0198;0.00474;0.000148;0.4561818;350
1324;465.1;0.0198;0.00474;0.000148;0.4561818;350
1326;465.2;0.0198;0.00474;0.000148;0.4561818;350
1328;465.1;0.0198;0.00474;0.000148;0.4561818;350
1330;465.1;0.0198;0.00474;0.000148;0.4561818;350
1332;465.1;0.0198;0.00475;0.000148;0.4561818;350
1334;465;0.0198;0.00475;0.000148;0.4561818;350
1336;465;0.0198;0.00474;0.000148;0.4538182;350
1338;465;0.0198;0.00475;0.000148;0.4561818;350
1340;464.9;0.0198;0.00474;0.000148;0.4561818;350
1342;464.9;0.0198;0.00474;0.000148;0.4585455;350
1344;464.9;0.0198;0.00475;0.000148;0.4609091;350
1346;465;0.0198;0.00475;0.000148;0.4609091;350
1348;465;0.0198;0.00474;0.000148;0.4609091;350
1350;465;0.0198;0.00475;0.000148;0.4609091;350
1352;465;0.0198;0.00474;0.000148;0.4609091;350
1354;464.9;0.0198;0.00475;0.000148;0.4561818;350
1356;464.8;0.0198;0.00474;0.000148;0.4609091;350
1358;464.8;0.0198;0.00475;0.000148;0.4609091;350
1360;464.8;0.0198;0.00475;0.000148;0.4632727;350
1362;464.8;0.0198;0.00475;0.000148;0.4632727;350
1364;464.8;0.0198;0.00474;0.000148;0.4609091;350
1366;464.8;0.0198;0.00474;0.000148;0.4609091;350
1368;464.7;0.0198;0.00474;0.000148;0.4585455;350
1370;464.7;0.0198;0.00474;0.000148;0.4609091;350
1372;464.6;0.0198;0.00475;0.000148;0.4632727;350
1374;464.6;0.0198;0.00474;0.000148;0.4656364;350
1376;464.6;0.0198;0.00474;0.000148;0.4632727;350
1378;464.6;0.0198;0.00475;0.000148;0.4632727;350
1380;464.6;0.0198;0.00475;0.000148;0.4632727;350
1382;464.6;0.0198;0.00474;0.000148;0.4632727;350
1384;464.6;0.0198;0.00474;0.000148;0.468;350
1386;464.6;0.0198;0.00474;0.000148;0.468;350
1388;464.6;0.0198;0.00474;0.000148;0.468;350
1390;464.6;0.0198;0.00474;0.000148;0.468;350
1392;464.6;0.0198;0.00474;0.000148;0.4656364;350
1394;464.5;0.0198;0.00474;0.000148;0.4656364;350
1396;464.5;0.0198;0.00475;0.000148;0.4656364;350
1398;464.4;0.0198;0.00474;0.000148;0.468;350
1400;464.4;0.0198;0.00475;0.000148;0.4656364;350
1402;464.3;0.0198;0.00474;0.000148;0.468;350
1404;464.3;0.0198;0.00474;0.000148;0.468;350
1406;464.3;0.0198;0.00475;0.000148;0.4703636;350
1408;464.4;0.0198;0.00474;0.000148;0.4703636;350
1410;464.4;0.0198;0.00475;0.000148;0.4703636;350
1412;464.3;0.0198;0.00474;0.000148;0.4703636;350
1414;464.3;0.0198;0.00474;0.000148;0.468;350
1416;464.3;0.0198;0.00474;0.000148;0.4703636;350
1418;464.2;0.0198;0.00474;0.000148;0.468;350
1420;464.2;0.0198;0.00474;0.000148;0.4727273;350
1422;464.2;0.0198;0.00474;0.000148;0.4727273;350
1424;464.2;0.0198;0.00474;0.000148;0.4750909;350
1426;464.3;0.0198;0.00474;0.000148;0.4750909;350
1428;464.3;0.0198;0.00475;0.000148;0.4727273;350
1430;464.3;0.0198;0.00475;0.000148;0.4727273;350
1432;464.3;0.0198;0.00474;0.000148;0.4703636;315
1434;464.3;0.0198;0.00474;0.000148;0.4727273;315
1436;464.3;0.0198;0.00474;0.000148;0.4774545;273
1438;464.3;0.0198;0.00474;0.000148;0.4774545;245
1440;464.4;0.0198;0.00474;0.000148;0.4845455;238
1442;464.5;0.0198;0.00473;0.000148;0.4821818;273
1444;464.6;0.0198;0.00474;0.000148;0.4821818;273
1446;464.6;0.0198;0.00474;0.000148;0.4774545;315
1448;464.5;0.0198;0.00475;0.000148;0.4774545;343
1450;464.4;0.0198;0.00474;0.000148;0.4727273;350
1452;464.3;0.0198;0.00474;0.000148;0.4750909;350
1454;464.3;0.0198;0.00474;0.000148;0.4774545;350
1456;464.3;0.0198;0.00474;0.000148;0.4798182;350
1458;464.4;0.0198;0.00474;0.000148;0.4798182;350
1460;464.4;0.0198;0.00474;0.000148;0.4798182;350
1462;464.4;0.0198;0.00474;0.000148;0.4798182;350
1464;464.4;0.0198;0.00475;0.000148;0.4798182;350
1466;464.4;0.0198;0.00474;0.000148;0.4798182;350
1468;464.4;0.0198;0.00475;0.000148;0.4798182;350
1470;464.4;0.0198;0.00474;0.000148;0.4845455;350
1472;464.5;0.0198;0.00474;0.000148;0.4845455;350
1474;464.5;0.0198;0.00474;0.000148;0.4845455;350
1476;464.6;0.0198;0.00474;0.000148;0.4869091;350
1478;464.6;0.0198;0.00475;0.000148;0.4845455;350
1480;464.6;0.0198;0.00474;0.000148;0.4845455;350
1482;464.5;0.0198;0.00475;0.000148;0.4821818;350
1484;464.5;0.0198;0.00475;0.000148;0.4821818;350
1486;464.5;0.0198;0.00475;0.000148;0.4869091;350
1488;464.5;0.0198;0.00474;0.000148;0.4892727;350
1490;464.6;0.0198;0.00474;0.000148;0.4892727;350
1492;464.6;0.0198;0.00475;0.000148;0.4892727;350
1494;464.6;0.0198;0.00474;0.000148;0.4916364;350
1496;464.7;0.0198;0.00475;0.000148;0.4892727;350
1498;464.6;0.0198;0.00474;0.000148;0.4916364;350
1500;464.6;0.0198;0.00474;0.000148;0.4892727;350
1502;464.6;0.0198;0.00475;0.000148;0.4916364;350
1504;464.5;0.0198;0.00474;0.000148;0.4892727;350
1506;464.5;0.0198;0.00474;0.000148;0.4892727;350
1508;464.5;0.0198;0.00475;0.000148;0.4892727;350
1510;464.4;0.0198;0.00474;0.000148;0.4869091;350
1512;464.4;0.0198;0.00474;0.000148;0.4892727;350
1514;464.4;0.0198;0.00474;0.000148;0.4892727;350
1516;464.4;0.0198;0.00475;0.000148;0.4916364;350
1518;464.4;0.0198;0.00475;0.000148;0.4916364;350
1520;464.5;0.0198;0.00475;0.000148;0.494;350
1522;464.5;0.0198;0.00474;0.000148;0.4963636;350
1524;464.6;0.0198;0.00475;0.000148;0.4963636;350
1526;464.6;0.0198;0.00474;0.000148;0.4987273;350
1528;464.6;0.0198;0.00474;0.000148;0.494;350
1530;464.5;0.0198;0.00474;0.000148;0.4963636;350
1532;464.5;0.0198;0.00474;0.000148;0.494;350
1534;464.5;0.0198;0.00475;0.000148;0.494;350
1536;464.4;0.0198;0.00475;0.000148;0.494;350
1538;464.4;0.0198;0.00475;0.000148;0.494;350
1540;464.4;0.0198;0.00475;0.000148;0.4963636;350
1542;464.4;0.0198;0.00474;0.000148;0.4963636;350
1544;464.4;0.0198;0.00475;0.000148;0.4987273;350
1546;464.5;0.0198;0.00475;0.000148;0.4987273;350
1548;464.5;0.0198;0.00474;0.000148;0.5010909;350
1550;464.5;0.0198;0.00474;0.000148;0.5010909;350
1552;464.5;0.0198;0.00475;0.000148;0.5010909;350
1554;464.5;0.0198;0.00475;0.000148;0.5010909;350
1556;464.5;0.0198;0.00474;0.000148;0.5010909;350
1558;464.5;0.0198;0.00475;0.000148;0.5010909;350
1560;464.5;0.0198;0.00474;0.000148;0.5010909;350
1562;464.4;0.0198;0.00474;0.000148;0.5010909;350
1564;464.4;0.0198;0.00475;0.000148;0.5010909;350
1566;464.3;0.0198;0.00474;0.000148;0.5010909;350
1568;464.3;0.0198;0.00475;0.000148;0.5010909;350
1570;464.3;0.0198;0.00474;0.000148;0.5010909;350
1572;464.3;0.0198;0.00475;0.000148;0.5034545;350
1574;464.3;0.0198;0.00475;0.000148;0.5034545;350
1576;464.3;0.0198;0.00475;0.000148;0.5058182;350
1578;464.3;0.0198;0.00475;0.000148;0.5058182;350
1580;464.3;0.0198;0.00475;0.000148;0.5081818;350
1582;464.3;0.0198;0.00475;0.000148;0.5058182;350
1584;464.3;0.0198;0.00475;0.000148;0.5034545;350
1586;464.3;0.0198;0.00474;0.000148;0.5034545;350
1588;464.2;0.0198;0.00475;0.000148;0.5010909;350
1590;464.1;0.0198;0.00475;0.000148;0.5058182;350
1592;464.1;0.0198;0.00475;0.000148;0.5058182;350
1594;464.1;0.0198;0.00475;0.000148;0.5081818;350
1596;464.2;0.0198;0.00475;0.000148;0.5081818;350
1598;464.2;0.0198;0.00475;0.000148;0.5081818;350
1600;464.2;0.0198;0.00475;0.000148;0.5081818;350
1602;464.1;0.0198;0.00475;0.000148;0.5058182;350
1604;464.1;0.0198;0.00475;0.000148;0.5081818;350
1606;464;0.0198;0.00475;0.000148;0.5058182;350
1608;464;0.0198;0.00474;0.000148;0.5105455;350
1610;464;0.0198;0.00475;0.000148;0.5105455;350
1612;464;0.0198;0.00474;0.000148;0.5129091;350
1614;464.1;0.0198;0.00475;0.000148;0.5105455;350
1616;464;0.0198;0.00475;0.000148;0.5129091;350
1618;464;0.0198;0.00475;0.000148;0.5105455;350
1620;464;0.0198;0.00475;0.000148;0.5081818;350
1622;463.9;0.0198;0.00475;0.000148;0.5081818;350
1624;463.9;0.0198;0.00475;0.000148;0.5105455;350
1626;463.9;0.0198;0.00475;0.000148;0.5152727;350
1628;463.9;0.0198;0.00475;0.000148;0.5152727;350
1630;463.9;0.0198;0.00475;0.000148;0.5152727;350
1632;463.9;0.0198;0.00475;0.000148;0.5152727;350
1634;463.9;0.0198;0.00475;0.000148;0.5152727;350
1636;463.9;0.0198;0.00475;0.000148;0.5152727;350
1638;463.8;0.0198;0.00475;0.000148;0.5129091;350
1640;463.7;0.0198;0.00475;0.000148;0.5129091;350
1642;463.6;0.0198;0.00475;0.000148;0.5105455;350
1644;463.5;0.0198;0.00475;0.000148;0.5105455;350
1646;463.5;0.0198;0.00475;0.000148;0.5129091;343
1648;463.5;0.0198;0.00475;0.000148;0.5152727;315
1650;463.5;0.0198;0.00475;0.000148;0.5176364;301
1652;463.5;0.0198;0.00475;0.000148;0.5152727;287
1654;463.5;0.0198;0.00475;0.000148;0.5152727;273
1656;463.5;0.0198;0.00475;0.000148;0.5129091;280
1658;463.4;0.0198;0.00474;0.000148;0.5152727;308
1660;463.4;0.0198;0.00475;0.000148;0.5129091;322
1662;463.3;0.0198;0.00475;0.000148;0.5152727;336
1664;463.3;0.0198;0.00476;0.000149;0.5152727;350
1666;463.3;0.0198;0.00475;0.000148;0.5176364;350
1668;463.3;0.0198;0.00475;0.000148;0.52;350
1670;463.3;0.0198;0.00475;0.000148;0.52;350
1672;463.3;0.0198;0.00475;0.000148;0.5223636;350
1674;463.3;0.0198;0.00475;0.000148;0.52;350
1676;463.3;0.0198;0.00475;0.000148;0.52;350
1678;463.3;0.0198;0.00475;0.000148;0.5176364;350
1680;463.2;0.0198;0.00475;0.000148;0.5176364;350
1682;463.1;0.0198;0.00475;0.000148;0.5176364;350
1684;463;0.0198;0.00475;0.000148;0.5176364;350
1686;463;0.0198;0.00475;0.000148;0.52;350
1688;463;0.0198;0.00475;0.000148;0.5176364;350
1690;463;0.0198;0.00475;0.000148;0.5223636;350
1692;463;0.0198;0.00475;0.000148;0.5223636;350
1694;463;0.0198;0.00475;0.000148;0.5247273;350
1696;463;0.0198;0.00475;0.000148;0.5247273;350
1698;463;0.0198;0.00475;0.000148;0.5223636;350
1700;463;0.0198;0.00475;0.000148;0.5223636;350
1702;462.8;0.0198;0.00475;0.000148;0.5176364;350
1704;462.8;0.0198;0.00475;0.000148;0.5223636;350
1706;462.7;0.0198;0.00475;0.000148;0.5223636;350
1708;462.8;0.0198;0.00475;0.000148;0.5247273;350
1710;462.8;0.0198;0.00475;0.000148;0.5223636;350
1712;462.8;0.0198;0.00475;0.000148;0.5223636;350
1714;462.7;0.0198;0.00475;0.000148;0.5223636;350
1716;462.7;0.0198;0.00476;0.000149;0.5223636;350
1718;462.6;0.0198;0.00475;0.000148;0.5223636;350
1720;462.6;0.0198;0.00476;0.000149;0.5223636;350
1722;462.6;0.0198;0.00475;0.000148;0.5270909;350
1724;462.6;0.0198;0.00475;0.000148;0.5247273;350
1726;462.6;0.0198;0.00475;0.000148;0.5247273;350
1728;462.6;0.0198;0.00475;0.000148;0.5247273;350
1730;462.5;0.0198;0.00475;0.000148;0.5223636;350
1732;462.5;0.0198;0.00475;0.000148;0.5223636;350
1734;462.5;0.0198;0.00476;0.000149;0.5247273;350
1736;462.4;0.0198;0.00475;0.000148;0.5294545;350
1738;462.5;0.0198;0.00475;0.000148;0.5294545;350
1740;462.5;0.0198;0.00475;0.000148;0.5294545;350
1742;462.5;0.0198;0.00475;0.000148;0.5294545;350
1744;462.5;0.0198;0.00475;0.000148;0.5270909;350
1746;462.4;0.0198;0.00475;0.000148;0.5270909;350
1748;462.4;0.0198;0.00476;0.000149;0.5247273;350
1750;462.3;0.0198;0.00475;0.000148;0.5270909;350
1752;462.3;0.0198;0.00475;0.000148;0.5294545;350
1754;462.3;0.0198;0.00476;0.000149;0.5318182;350
1756;462.3;0.0198;0.00476;0.000149;0.5294545;350
1758;462.3;0.0198;0.00476;0.000149;0.5294545;350
1760;462.3;0.0198;0.00476;0.000149;0.5294545;350
1762;462.3;0.0198;0.00475;0.000148;0.5270909;350
1764;462.2;0.0198;0.00476;0.000149;0.5270909;350
1766;462.2;0.0198;0.00475;0.000148;0.5270909;350
1768;462.2;0.0198;0.00476;0.000149;0.5318182;350
1770;462.2;0.0198;0.00476;0.000149;0.5318182;350
1772;462.2;0.0198;0.00476;0.000149;0.5341818;350
1774;462.2;0.0198;0.00476;0.000149;0.5318182;350
1776;462.2;0.0198;0.00476;0.000149;0.5294545;350
1778;462.1;0.0198;0.00475;0.000148;0.5294545;350
1780;462.1;0.0198;0.00476;0.000149;0.5294545;350
1782;462;0.0198;0.00475;0.000148;0.5294545;350
1784;462;0.0198;0.00476;0.000149;0.5318182;350
1786;462;0.0198;0.00475;0.000148;0.5365455;350
1788;462;0.0198;0.00476;0.000149;0.5341818;350
1790;462;0.0198;0.00475;0.000148;0.5341818;350
1792;462;0.0198;0.00476;0.000149;0.5318182;350
1794;462;0.0198;0.00475;0.000148;0.5318182;350
1796;461.9;0.0198;0.00475;0.000148;0.5318182;350
1798;461.9;0.0198;0.00476;0.000149;0.5318182;350
1800;461.9;0.0198;0.00475;0.000148;0.5318182;350
1802;461.8;0.0198;0.00476;0.000149;0.5341818;350
1804;461.8;0.0198;0.00475;0.000148;0.5365455;350
1806;461.9;0.0198;0.00476;0.000149;0.5365455;350
1808;461.9;0.0198;0.00475;0.000148;0.5365455;350
1810;461.9;0.0198;0.00476;0.000149;0.5365455;350
1812;461.8;0.0198;0.00475;0.000148;0.5341818;350
1814;461.8;0.0198;0.00476;0.000149;0.5365455;350
1816;461.8;0.0198;0.00476;0.000149;0.5341818;350
1818;461.7;0.0198;0.00475;0.000148;0.5365455;350
1820;461.7;0.0198;0.00476;0.000149;0.5341818;350
1822;461.7;0.0198;0.00475;0.000148;0.5341818;350
1824;461.6;0.0198;0.00476;0.000149;0.5341818;350
1826;461.6;0.0198;0.00475;0.000148;0.5341818;350
1828;461.6;0.0198;0.00476;0.000149;0.5389091;350
1830;461.6;0.0198;0.00475;0.000148;0.5389091;350
1832;461.6;0.0198;0.00475;0.000148;0.5436364;350
1834;461.7;0.0198;0.00475;0.000148;0.5412727;350
1836;461.7;0.0198;0.00476;0.000149;0.5412727;350
1838;461.7;0.0198;0.00475;0.000148;0.5412727;350
1840;461.7;0.0198;0.00476;0.000149;0.5389091;350
1842;461.6;0.0198;0.00475;0.000148;0.5389091;350
1844;461.5;0.0198;0.00476;0.000149;0.5389091;350
1846;461.5;0.0198;0.00475;0.000148;0.5389091;350
1848;461.4;0.0198;0.00476;0.000149;0.5365455;350
1850;461.3;0.0198;0.00475;0.000148;0.5389091;350
1852;461.3;0.0198;0.00476;0.000149;0.5412727;350
1854;461.3;0.0198;0.00475;0.000148;0.5436364;350
1856;461.4;0.0198;0.00475;0.000148;0.5436364;350
1858;461.4;0.0198;0.00476;0.000149;0.5412727;350
1860;461.4;0.0198;0.00475;0.000148;0.5412727;350
1862;461.3;0.0198;0.00475;0.000148;0.5389091;350
1864;461.3;0.0198;0.00476;0.000149;0.5412727;350
1866;461.2;0.0198;0.00476;0.000149;0.5389091;350
1868;461.1;0.0198;0.00475;0.000148;0.5412727;350
1870;461.1;0.0198;0.00476;0.000149;0.5412727;329
1872;461.1;0.0198;0.00476;0.000149;0.5436364;329
1874;461.1;0.0198;0.00476;0.000149;0.5436364;329
1876;461.2;0.0198;0.00475;0.000148;0.546;329
1878;461.2;0.0198;0.00476;0.000149;0.546;329
1880;461.1;0.0198;0.00476;0.000149;0.5436364;350
1882;461.1;0.0198;0.00475;0.000148;0.5412727;350
1884;461;0.0198;0.00476;0.000149;0.5389091;350
1886;460.9;0.0198;0.00475;0.000148;0.5436364;350
1888;460.9;0.0198;0.00476;0.000149;0.546;350
1890;460.9;0.0198;0.00475;0.000148;0.546;350
1892;461;0.0198;0.00476;0.000149;0.5483636;350
1894;461;0.0198;0.00476;0.000149;0.546;350
1896;460.9;0.0198;0.00476;0.000149;0.546;350
1898;460.8;0.0198;0.00476;0.000149;0.5436364;350
1900;460.8;0.0198;0.00476;0.000149;0.5436364;350
1902;460.7;0.0198;0.00476;0.000149;0.5412727;350
1904;460.6;0.0198;0.00476;0.000149;0.5412727;350
1906;460.5;0.0198;0.00475;0.000148;0.5412727;350
1908;460.5;0.0198;0.00476;0.000149;0.546;350
1910;460.5;0.0198;0.00475;0.000148;0.546;350
1912;460.5;0.0198;0.00476;0.000149;0.546;350
1914;460.5;0.0198;0.00476;0.000149;0.546;350
1916;460.5;0.0198;0.00475;0.000148;0.5436364;350
1918;460.5;0.0198;0.00476;0.000149;0.546;350
1920;460.4;0.0198;0.00476;0.000149;0.5436364;350
1922;460.4;0.0198;0.00476;0.000149;0.546;350
1924;460.4;0.0198;0.00476;0.000149;0.5483636;350
1926;460.4;0.0198;0.00476;0.000149;0.5483636;350
1928;460.4;0.0198;0.00475;0.000148;0.5483636;350
1930;460.3;0.0198;0.00475;0.000148;0.546;350
1932;460.3;0.0198;0.00475;0.000148;0.546;350
1934;460.2;0.0198;0.00476;0.000149;0.5436364;350
1936;460.2;0.0198;0.00475;0.000148;0.5483636;350
1938;460.2;0.0198;0.00476;0.000149;0.5483636;350
1940;460.2;0.0198;0.00475;0.000148;0.5483636;350
1942;460.2;0.0198;0.00475;0.000148;0.5483636;350
1944;460.2;0.0198;0.00476;0.000149;0.546;350
1946;460.1;0.0198;0.00476;0.000149;0.5483636;350
1948;460;0.0198;0.00475;0.000148;0.546;350
1950;460;0.0198;0.00476;0.000149;0.5483636;350
1952;459.9;0.0198;0.00476;0.000149;0.546;350
1954;459.9;0.0198;0.00476;0.000149;0.5483636;350
1956;459.9;0.0198;0.00476;0.000149;0.5507273;350
1958;459.9;0.0198;0.00476;0.000149;0.5507273;350
1960;459.9;0.0198;0.00476;0.000149;0.5507273;350
1962;459.9;0.0198;0.00476;0.000149;0.5483636;350
1964;459.9;0.0198;0.00476;0.000149;0.5507273;350
1966;459.8;0.0198;0.00476;0.000149;0.5483636;350
1968;459.8;0.0198;0.00476;0.000149;0.5507273;350
1970;459.7;0.0198;0.00476;0.000149;0.5483636;350
1972;459.6;0.0198;0.00476;0.000149;0.5483636;350
1974;459.6;0.0198;0.00476;0.000149;0.5483636;350
1976;459.5;0.0198;0.00476;0.000149;0.5483636;329
1978;459.5;0.0198;0.00476;0.000149;0.5507273;287
1980;459.5;0.0198;0.00476;0.000149;0.5507273;273
1982;459.5;0.0198;0.00475;0.000148;0.5578182;252
1984;459.6;0.0198;0.00476;0.000149;0.5554545;252
1986;459.6;0.0198;0.00476;0.000149;0.5530909;273
1988;459.5;0.0198;0.00476;0.000149;0.5483636;315
1990;459.3;0.0198;0.00476;0.000149;0.546;322
1992;459.2;0.0198;0.00476;0.000149;0.5507273;350
1994;459.1;0.0198;0.00476;0.000149;0.5507273;350
1996;459.1;0.0198;0.00476;0.000149;0.5530909;350
1998;459.1;0.0198;0.00476;0.000149;0.5507273;350
2000;459.1;0.0198;0.00475;0.000148;0.5530909;350
2002;459.1;0.0198;0.00476;0.000149;0.5507273;350
2004;459;0.0198;0.00476;0.000149;0.5483636;350
2006;458.9;0.0198;0.00476;0.000149;0.5483636;350
2008;458.9;0.0198;0.00476;0.000149;0.5483636;350
2010;458.8;0.0198;0.00476;0.000149;0.5483636;350
2012;458.7;0.0198;0.00476;0.000149;0.546;350
2014;458.7;0.0198;0.00476;0.000149;0.5507273;350
2016;458.7;0.0198;0.00476;0.000149;0.5507273;350
2018;458.7;0.0198;0.00476;0.000149;0.5554545;350
2020;458.8;0.0198;0.00476;0.000149;0.5530909;350
2022;458.8;0.0198;0.00476;0.000149;0.5530909;350
2024;458.7;0.0198;0.00476;0.000149;0.5507273;350
2026;458.7;0.0198;0.00476;0.000149;0.5507273;350
2028;458.6;0.0198;0.00476;0.000149;0.5507273;350
2030;458.5;0.0198;0.00476;0.000149;0.5483636;350
2032;458.5;0.0198;0.00476;0.000149;0.5507273;350
2034;458.4;0.0198;0.00476;0.000149;0.5507273;350
2036;458.5;0.0198;0.00475;0.000148;0.5530909;350
2038;458.5;0.0198;0.00475;0.000148;0.5530909;350
2040;458.5;0.0198;0.00476;0.000149;0.5530909;350
2042;458.5;0.0198;0.00475;0.000148;0.5530909;350
2044;458.4;0.0198;0.00476;0.000149;0.5507273;350
2046;458.4;0.0198;0.00476;0.000149;0.5507273;350
2048;458.3;0.0198;0.00476;0.000149;0.5507273;350
2050;458.2;0.0198;0.00476;0.000149;0.5507273;350
2052;458.2;0.0198;0.00476;0.000149;0.5507273;350
2054;458.2;0.0198;0.00476;0.000149;0.5530909;350
2056;458.2;0.0198;0.00475;0.000148;0.5530909;350
2058;458.2;0.0198;0.00477;0.000149;0.5554545;350
2060;458.3;0.0198;0.00476;0.000149;0.5554545;350
2062;458.3;0.0198;0.00476;0.000149;0.5554545;350
2064;458.3;0.0198;0.00476;0.000149;0.5554545;350
2066;458.2;0.0198;0.00476;0.000149;0.5554545;350
2068;458.2;0.0198;0.00476;0.000149;0.5554545;350
2070;458.1;0.0198;0.00476;0.000149;0.5530909;350
2072;458.1;0.0198;0.00476;0.000149;0.5507273;350
2074;458;0.0198;0.00477;0.000149;0.5507273;350
2076;457.9;0.0198;0.00476;0.000149;0.5483636;350
2078;457.9;0.0198;0.00475;0.000148;0.5554545;350
2080;457.9;0.0198;0.00476;0.000149;0.5554545;350
2082;457.9;0.0198;0.00476;0.000149;0.5554545;350
2084;457.9;0.0198;0.00476;0.000149;0.5554545;350
2086;457.9;0.0198;0.00476;0.000149;0.5554545;350
2088;457.9;0.0198;0.00476;0.000149;0.5554545;350
2090;457.9;0.0198;0.00476;0.000149;0.5530909;350
2092;457.8;0.0198;0.00476;0.000149;0.5530909;350
2094;457.7;0.0198;0.00476;0.000149;0.5507273;350
2096;457.7;0.0198;0.00475;0.000148;0.5530909;350
2098;457.7;0.0198;0.00476;0.000149;0.5530909;350
2100;457.7;0.0198;0.00476;0.000149;0.5554545;350
2102;457.7;0.0198;0.00476;0.000149;0.5578182;350
2104;457.7;0.0198;0.00476;0.000149;0.5578182;350
2106;457.7;0.0198;0.00476;0.000149;0.5578182;350
2108;457.7;0.0198;0.00476;0.000149;0.5554545;350
2110;457.7;0.0198;0.00476;0.000149;0.5554545;350
2112;457.6;0.0198;0.00476;0.000149;0.5530909;350
2114;457.5;0.0198;0.00476;0.000149;0.5530909;350
2116;457.4;0.0198;0.00476;0.000149;0.5507273;350
2118;457.4;0.0198;0.00476;0.000149;0.5530909;350
2120;457.4;0.0198;0.00476;0.000149;0.5554545;350
2122;457.4;0.0198;0.00476;0.000149;0.5578182;350
2124;457.4;0.0198;0.00476;0.000149;0.5578182;350
2126;457.4;0.0198;0.00477;0.000149;0.5578182;350
2128;457.4;0.0198;0.00476;0.000149;0.5578182;350
2130;457.4;0.0198;0.00477;0.000149;0.5554545;350
2132;457.4;0.0198;0.00476;0.000149;0.5554545;350
2134;457.2;0.0198;0.00476;0.000149;0.5530909;350
2136;457.2;0.0198;0.00476;0.000149;0.5530909;350
2138;457.2;0.0198;0.00476;0.000149;0.5554545;350
2140;457.2;0.0198;0.00476;0.000149;0.5578182;350
2142;457.2;0.0198;0.00477;0.000149;0.5578182;350
2144;457.2;0.0198;0.00477;0.000149;0.5554545;350
2146;457.2;0.0198;0.00476;0.000149;0.5578182;350
2148;457;0.0198;0.00476;0.000149;0.5530909;350
2150;457.1;0.0198;0.00476;0.000149;0.5554545;350
2152;457.1;0.0198;0.00476;0.000149;0.5554545;350
2154;457;0.0198;0.00476;0.000149;0.5554545;350
2156;457;0.0198;0.00476;0.000149;0.5578182;350
2158;457;0.0198;0.00476;0.000149;0.5601818;350
2160;457.1;0.0198;0.00476;0.000149;0.5601818;350
2162;457.1;0.0198;0.00476;0.000149;0.5578182;350
2164;457;0.0198;0.00476;0.000149;0.5578182;350
2166;457;0.0198;0.00476;0.000149;0.5554545;350
2168;456.9;0.0198;0.00476;0.000149;0.5554545;350
2170;456.8;0.0198;0.00476;0.000149;0.5578182;350
2172;456.8;0.0198;0.00476;0.000149;0.5601818;350
2174;456.9;0.0198;0.00476;0.000149;0.5601818;350
2176;456.9;0.0198;0.00476;0.000149;0.5601818;350
2178;456.9;0.0198;0.00476;0.000149;0.5601818;350
2180;456.9;0.0198;0.00475;0.000148;0.5578182;350
2182;456.8;0.0198;0.00476;0.000149;0.5554545;350
2184;456.7;0.0198;0.00476;0.000149;0.5554545;350
2186;456.7;0.0198;0.00476;0.000149;0.5601818;350
2188;456.7;0.0198;0.00476;0.000149;0.5601818;350
2190;456.7;0.0198;0.00476;0.000149;0.5601818;350
2192;456.7;0.0198;0.00476;0.000149;0.5601818;350
2194;456.7;0.0198;0.00476;0.000149;0.5578182;350
2196;456.7;0.0198;0.00475;0.000148;0.5578182;350
2198;456.6;0.0198;0.00476;0.000149;0.5578182;350
2200;456.6;0.0198;0.00475;0.000148;0.5625455;350
2202;456.6;0.0198;0.00475;0.000148;0.5601818;350
2204;456.6;0.0198;0.00475;0.000148;0.5601818;350
2206;456.6;0.0198;0.00476;0.000149;0.5601818;350
2208;456.6;0.0198;0.00476;0.000149;0.5578182;350
2210;456.5;0.0198;0.00475;0.000148;0.5601818;343
2212;456.5;0.0198;0.00476;0.000149;0.5578182;315
2214;456.4;0.0198;0.00475;0.000148;0.5578182;280
2216;456.4;0.0198;0.00475;0.000148;0.5554545;266
2218;456.3;0.0198;0.00475;0.000148;0.5601818;238
2220;456.4;0.0198;0.00476;0.000149;0.5625455;210
2222;456.4;0.0198;0.00476;0.000149;0.5625455;231
2224;456.4;0.0198;0.00475;0.000148;0.5625455;224
2226;456.4;0.0198;0.00475;0.000148;0.5601818;210
2228;456.4;0.0198;0.00476;0.000149;0.5601818;231
2230;456.3;0.0198;0.00475;0.000148;0.5578182;238
2232;456.2;0.0198;0.00476;0.000149;0.5601818;238
2234;456.2;0.0198;0.00475;0.000148;0.5601818;280
2236;456.2;0.0198;0.00476;0.000149;0.5625455;308
2238;456.3;0.0198;0.00475;0.000148;0.5625455;315
2240;456.3;0.0198;0.00476;0.000149;0.5625455;350
2242;456.2;0.0198;0.00475;0.000148;0.5601818;350
2244;456.2;0.0198;0.00475;0.000148;0.5578182;350
2246;456.1;0.0198;0.00475;0.000148;0.5578182;350
2248;456.1;0.0198;0.00476;0.000149;0.5554545;350
2250;456;0.0198;0.00475;0.000148;0.5625455;350
2252;456;0.0198;0.00475;0.000148;0.5625455;350
2254;456;0.0198;0.00476;0.000149;0.5625455;350
2256;456.1;0.0198;0.00475;0.000148;0.5625455;350
2258;456.1;0.0198;0.00475;0.000148;0.5625455;350
2260;456.1;0.0198;0.00476;0.000149;0.5625455;350
2262;456;0.0198;0.00476;0.000149;0.5601818;350
2264;456;0.0198;0.00475;0.000148;0.5601818;350
2266;455.9;0.0198;0.00476;0.000149;0.5578182;350
2268;455.8;0.0198;0.00476;0.000149;0.5578182;350
2270;455.8;0.0198;0.00476;0.000149;0.5601818;350
2272;455.8;0.0198;0.00476;0.000149;0.5625455;350
2274;455.8;0.0198;0.00476;0.000149;0.5625455;350
2276;455.9;0.0198;0.00476;0.000149;0.5625455;350
2278;455.9;0.0198;0.00476;0.000149;0.5625455;350
2280;455.7;0.0198;0.00476;0.000149;0.5601818;350
2282;455.8;0.0198;0.00476;0.000149;0.5601818;350
2284;455.7;0.0198;0.00476;0.000149;0.5578182;350
2286;455.7;0.0198;0.00476;0.000149;0.5601818;350
2288;455.7;0.0198;0.00476;0.000149;0.5625455;350
2290;455.7;0.0198;0.00476;0.000149;0.5625455;350
2292;455.7;0.0198;0.00476;0.000149;0.5625455;350
2294;455.7;0.0198;0.00476;0.000149;0.5625455;350
2296;455.6;0.0198;0.00476;0.000149;0.5601818;350
2298;455.6;0.0198;0.00476;0.000149;0.5601818;350
2300;455.5;0.0198;0.00476;0.000149;0.5601818;350
2302;455.6;0.0198;0.00476;0.000149;0.5601818;350
2304;455.6;0.0198;0.00476;0.000149;0.5625455;350
2306;455.5;0.0198;0.00476;0.000149;0.5625455;350
2308;455.6;0.0198;0.00476;0.000149;0.5625455;350
2310;455.6;0.0198;0.00476;0.000149;0.5625455;350
2312;455.5;0.0198;0.00476;0.000149;0.5601818;350
2314;455.4;0.0198;0.00476;0.000149;0.5601818;350
2316;455.3;0.0198;0.00476;0.000149;0.5578182;350
2318;455.4;0.0198;0.00476;0.000149;0.5601818;350
2320;455.3;0.0198;0.00476;0.000149;0.5625455;350
2322;455.3;0.0198;0.00476;0.000149;0.5625455;350
2324;455.4;0.0198;0.00476;0.000149;0.5625455;350
2326;455.4;0.0198;0.00476;0.000149;0.5625455;350
2328;455.4;0.0198;0.00476;0.000149;0.5625455;350
2330;455.4;0.0198;0.00476;0.000149;0.5625455;350
2332;455.3;0.0198;0.00476;0.000149;0.5625455;350
2334;455.3;0.0198;0.00476;0.000149;0.5601818;350
2336;455.2;0.0198;0.00476;0.000149;0.5601818;350
2338;455.2;0.0198;0.00476;0.000149;0.5625455;350
2340;455.2;0.0198;0.00476;0.000149;0.5625455;350
2342;455.2;0.0198;0.00476;0.000149;0.5649091;350
2344;455.2;0.0198;0.00476;0.000149;0.5625455;350
2346;455.2;0.0198;0.00476;0.000149;0.5625455;350
2348;455.2;0.0198;0.00476;0.000149;0.5625455;350
2350;455.2;0.0198;0.00476;0.000149;0.5625455;350
2352;455.1;0.0198;0.00476;0.000149;0.5625455;350
2354;455.1;0.0198;0.00476;0.000149;0.5601818;350
2356;454.9;0.0198;0.00476;0.000149;0.5601818;350
2358;455;0.0198;0.00476;0.000149;0.5601818;350
2360;454.9;0.0198;0.00476;0.000149;0.5625455;350
2362;455;0.0198;0.00476;0.000149;0.5625455;350
2364;454.9;0.0198;0.00476;0.000149;0.5649091;350
2366;455;0.0198;0.00476;0.000149;0.5649091;350
2368;454.9;0.0198;0.00476;0.000149;0.5625455;350
2370;454.9;0.0198;0.00476;0.000149;0.5601818;350
2372;454.9;0.0198;0.00476;0.000149;0.5625455;350
2374;454.8;0.0198;0.00476;0.000149;0.5649091;350
2376;454.8;0.0198;0.00476;0.000149;0.5625455;350
2378;454.8;0.0198;0.00476;0.000149;0.5625455;350
2380;454.7;0.0198;0.00476;0.000149;0.5601818;350
2382;454.6;0.0198;0.00476;0.000149;0.5601818;350
2384;454.6;0.0198;0.00476;0.000149;0.5625455;350
2386;454.6;0.0198;0.00476;0.000149;0.5625455;350
2388;454.6;0.0198;0.00476;0.000149;0.5649091;329
2390;454.6;0.0198;0.00476;0.000149;0.5625455;329
2392;454.6;0.0198;0.00476;0.000149;0.5649091;308
2394;454.6;0.0198;0.00476;0.000149;0.5601818;280
2396;454.5;0.0198;0.00476;0.000149;0.5601818;266
2398;454.4;0.0198;0.00476;0.000149;0.5601818;252
2400;454.3;0.0198;0.00476;0.000149;0.5625455;224
2402;454.4;0.0198;0.00476;0.000149;0.5649091;238
2404;454.4;0.0198;0.00476;0.000149;0.5625455;259
2406;454.3;0.0198;0.00476;0.000149;0.5601818;259
2408;454.4;0.0198;0.00476;0.000149;0.5601818;294
2410;454.4;0.0198;0.00476;0.000149;0.5601818;329
2412;454.3;0.0198;0.00476;0.000149;0.5601818;336
2414;454.3;0.0198;0.00476;0.000149;0.5625455;350
2416;454.3;0.0198;0.00476;0.000149;0.5601818;350
2418;454.3;0.0198;0.00476;0.000149;0.5625455;350
2420;454.2;0.0198;0.00476;0.000149;0.5625455;350
2422;454.3;0.0198;0.00476;0.000149;0.5649091;350
2424;454.3;0.0198;0.00476;0.000149;0.5649091;350
2426;454.2;0.0198;0.00476;0.000149;0.5625455;350
2428;454.3;0.0198;0.00476;0.000149;0.5625455;350
2430;454.1;0.0198;0.00476;0.000149;0.5601818;350
2432;454.2;0.0198;0.00476;0.000149;0.5601818;350
2434;454;0.0198;0.00476;0.000149;0.5578182;350
2436;454.1;0.0198;0.00476;0.000149;0.5625455;350
2438;454.1;0.0198;0.00476;0.000149;0.5625455;350
2440;454.1;0.0198;0.00476;0.000149;0.5625455;350
2442;454.1;0.0198;0.00476;0.000149;0.5625455;350
2444;454.1;0.0198;0.00476;0.000149;0.5601818;350
2446;454;0.0198;0.00476;0.000149;0.5625455;350
2448;453.9;0.0198;0.00476;0.000149;0.5601818;350
2450;454;0.0198;0.00476;0.000149;0.5601818;350
2452;453.9;0.0198;0.00476;0.000149;0.5625455;350
2454;454;0.0198;0.00476;0.000149;0.5649091;350
2456;454;0.0198;0.00476;0.000149;0.5649091;350
2458;454;0.0198;0.00476;0.000149;0.5625455;350
2460;454;0.0198;0.00476;0.000149;0.5625455;350
2462;454;0.0198;0.00476;0.000149;0.5601818;350
2464;453.9;0.0198;0.00476;0.000149;0.5601818;350
2466;453.8;0.0198;0.00476;0.000149;0.5601818;350
2468;453.7;0.0198;0.00476;0.000149;0.5625455;350
2470;453.8;0.0198;0.00476;0.000149;0.5625455;350
2472;453.7;0.0198;0.00476;0.000149;0.5625455;350
2474;453.8;0.0198;0.00476;0.000149;0.5625455;350
2476;453.8;0.0198;0.00476;0.000149;0.5625455;350
2478;453.8;0.0198;0.00476;0.000149;0.5601818;350
2480;453.7;0.0198;0.00476;0.000149;0.5578182;350
2482;453.6;0.0198;0.00476;0.000149;0.5625455;350
2484;453.6;0.0198;0.00476;0.000149;0.5625455;350
2486;453.6;0.0198;0.00476;0.000149;0.5625455;350
2488;453.7;0.0198;0.00476;0.000149;0.5625455;350
2490;453.7;0.0198;0.00476;0.000149;0.5625455;350
2492;453.6;0.0198;0.00476;0.000149;0.5601818;350
2494;453.6;0.0198;0.00476;0.000149;0.5601818;350
2496;453.5;0.0198;0.00476;0.000149;0.5601818;350
2498;453.5;0.0198;0.00476;0.000149;0.5578182;350
2500;453.4;0.0198;0.00476;0.000149;0.5625455;350
2502;453.5;0.0198;0.00476;0.000149;0.5625455;350
2504;453.4;0.0198;0.00476;0.000149;0.5625455;350
2506;453.5;0.0198;0.00476;0.000149;0.5625455;350
2508;453.4;0.0198;0.00476;0.000149;0.5625455;350
2510;453.4;0.0198;0.00476;0.000149;0.5625455;350
2512;453.5;0.0198;0.00476;0.000149;0.5625455;350
2514;453.4;0.0198;0.00476;0.000149;0.5625455;350
2516;453.4;0.0198;0.00476;0.000149;0.5601818;350
2518;453.3;0.0198;0.00476;0.000149;0.5578182;350
2520;453.2;0.0198;0.00476;0.000149;0.5578182;350
2522;453.2;0.0198;0.00476;0.000149;0.5601818;350
2524;453.2;0.0198;0.00476;0.000149;0.5625455;350
2526;453.2;0.0198;0.00476;0.000149;0.5601818;350
2528;453.2;0.0198;0.00476;0.000149;0.5625455;350
2530;453.2;0.0198;0.00476;0.000149;0.5601818;350
2532;453.1;0.0198;0.00476;0.000149;0.5601818;350
2534;453.2;0.0198;0.00476;0.000149;0.5601818;350
2536;453.2;0.0198;0.00476;0.000149;0.5625455;350
2538;453.2;0.0198;0.00476;0.000149;0.5601818;350
2540;453.1;0.0198;0.00476;0.000149;0.5601818;350
2542;453;0.0198;0.00476;0.000149;0.5601818;350
2544;453.1;0.0198;0.00476;0.000149;0.5601818;350
2546;453.1;0.0198;0.00476;0.000149;0.5625455;350
2548;453;0.0198;0.00476;0.000149;0.5601818;350
2550;452.9;0.0198;0.00476;0.000149;0.5601818;350
2552;453;0.0198;0.00476;0.000149;0.5601818;350
2554;453;0.0198;0.00476;0.000149;0.5601818;350
2556;453;0.0198;0.00476;0.000149;0.5601818;350
2558;452.9;0.0198;0.00476;0.000149;0.5601818;350
2560;453;0.0198;0.00476;0.000149;0.5649091;350
2562;453.1;0.0198;0.00476;0.000149;0.5625455;350
2564;453.1;0.0198;0.00476;0.000149;0.5649091;350
2566;453.1;0.0198;0.00476;0.000149;0.5625455;350
2568;453.1;0.0198;0.00476;0.000149;0.5601818;350
2570;453;0.0198;0.00476;0.000149;0.5578182;350
2572;452.9;0.0198;0.00476;0.000149;0.5578182;350
2574;452.9;0.0198;0.00476;0.000149;0.5601818;350
2576;452.9;0.0198;0.00476;0.000149;0.5601818;350
2578;452.9;0.0198;0.00476;0.000149;0.5625455;350
2580;452.9;0.0198;0.00476;0.000149;0.5601818;350
2582;452.9;0.0198;0.00476;0.000149;0.5601818;350
2584;452.8;0.0198;0.00476;0.000149;0.5578182;350
2586;452.8;0.0198;0.00476;0.000149;0.5578182;350
2588;452.8;0.0198;0.00476;0.000149;0.5578182;329
2590;452.7;0.0198;0.00476;0.000149;0.5625455;315
2592;452.9;0.0198;0.00476;0.000149;0.5625455;280
2594;452.8;0.0198;0.00476;0.000149;0.5625455;280
2596;452.8;0.0198;0.00476;0.000149;0.5625455;280
2598;452.8;0.0198;0.00476;0.000149;0.5625455;301
2600;452.9;0.0198;0.00476;0.000149;0.5625455;315
2602;452.8;0.0198;0.00476;0.000149;0.5601818;350
2604;452.8;0.0198;0.00476;0.000149;0.5601818;350
2606;452.6;0.0198;0.00476;0.000149;0.5578182;350
2608;452.6;0.0198;0.00476;0.000149;0.5554545;350
2610;452.5;0.0198;0.00476;0.000149;0.5601818;350
2612;452.5;0.0198;0.00476;0.000149;0.5601818;350
2614;452.6;0.0198;0.00476;0.000149;0.5625455;350
2616;452.7;0.0198;0.00476;0.000149;0.5601818;350
2618;452.7;0.0198;0.00476;0.000149;0.5601818;350
2620;452.6;0.0198;0.00476;0.000149;0.5601818;350
2622;452.5;0.0198;0.00476;0.000149;0.5578182;350
2624;452.5;0.0198;0.00476;0.000149;0.5578182;350
2626;452.5;0.0198;0.00476;0.000149;0.5601818;350
2628;452.5;0.0198;0.00476;0.000149;0.5625455;350
2630;452.5;0.0198;0.00476;0.000149;0.5601818;350
2632;452.6;0.0198;0.00476;0.000149;0.5625455;350
2634;452.6;0.0198;0.00476;0.000149;0.5601818;350
2636;452.5;0.0198;0.00476;0.000149;0.5601818;350
2638;452.5;0.0198;0.00476;0.000149;0.5578182;350
2640;452.5;0.0198;0.00476;0.000149;0.5578182;350
2642;452.5;0.0198;0.00476;0.000149;0.5625455;350
2644;452.5;0.0198;0.00476;0.000149;0.5625455;350
2646;452.5;0.0198;0.00476;0.000149;0.5649091;350
2648;452.5;0.0198;0.00476;0.000149;0.5625455;350
2650;452.5;0.0198;0.00476;0.000149;0.5601818;350
2652;452.5;0.0198;0.00476;0.000149;0.5578182;350
2654;452.4;0.0198;0.00476;0.000149;0.5554545;350
2656;452.4;0.0198;0.00476;0.000149;0.5601818;350
2658;452.3;0.0198;0.00476;0.000149;0.5601818;350
2660;452.4;0.0198;0.00476;0.000149;0.5625455;350
2662;452.4;0.0198;0.00476;0.000149;0.5601818;350
2664;452.3;0.0198;0.00476;0.000149;0.5601818;350
2666;452.3;0.0198;0.00476;0.000149;0.5578182;350
2668;452.3;0.0198;0.00476;0.000149;0.5578182;350
2670;452.3;0.0198;0.00476;0.000149;0.5601818;315
2672;452.2;0.0198;0.00476;0.000149;0.5601818;315
2674;452.4;0.0198;0.00476;0.000149;0.5625455;280
2676;452.3;0.0198;0.00476;0.000149;0.5601818;280
2678;452.3;0.0198;0.00476;0.000149;0.5601818;280
2680;452.2;0.0198;0.00476;0.000149;0.5578182;315
2682;452.2;0.0198;0.00476;0.000149;0.5578182;315
2684;452.2;0.0198;0.00476;0.000149;0.5601818;350
2686;452.2;0.0198;0.00476;0.000149;0.5625455;350
2688;452.2;0.0198;0.00476;0.000149;0.5601818;350
2690;452.2;0.0198;0.00476;0.000149;0.5601818;350
2692;452.2;0.0198;0.00476;0.000149;0.5578182;350
2694;452.1;0.0198;0.00476;0.000149;0.5578182;350
2696;452.1;0.0198;0.00476;0.000149;0.5578182;350
2698;452;0.0198;0.00476;0.000149;0.5578182;350
2700;452.1;0.0198;0.00476;0.000149;0.5625455;350
2702;452.1;0.0198;0.00476;0.000149;0.5601818;350
2704;452.1;0.0198;0.00476;0.000149;0.5578182;350
2706;452;0.0198;0.00476;0.000149;0.5554545;350
2708;452;0.0198;0.00476;0.000149;0.5578182;350
2710;452;0.0198;0.00476;0.000149;0.5601818;350
2712;452;0.0198;0.00476;0.000149;0.5601818;350
2714;452;0.0198;0.00476;0.000149;0.5601818;350
2716;452.1;0.0198;0.00476;0.000149;0.5601818;350
2718;452;0.0198;0.00476;0.000149;0.5601818;350
2720;452;0.0198;0.00476;0.000149;0.5578182;350
2722;452.1;0.0198;0.00476;0.000149;0.5578182;350
2724;451.9;0.0198;0.00476;0.000149;0.5578182;350
2726;451.9;0.0198;0.00476;0.000149;0.5554545;350
2728;451.9;0.0198;0.00476;0.000149;0.5578182;350
2730;451.9;0.0198;0.00476;0.000149;0.5578182;350
2732;451.9;0.0198;0.00476;0.000149;0.5625455;350
2734;451.9;0.0198;0.00476;0.000149;0.5601818;350
2736;451.9;0.0198;0.00476;0.000149;0.5601818;350
2738;452;0.0198;0.00476;0.000149;0.5601818;350
2740;451.9;0.0198;0.00476;0.000149;0.5601818;350
2742;451.9;0.0198;0.00476;0.000149;0.5601818;350
2744;451.9;0.0198;0.00476;0.000149;0.5578182;350
2746;451.8;0.0198;0.00476;0.000149;0.5578182;350
2748;451.8;0.0198;0.00476;0.000149;0.5554545;350
2750;451.7;0.0198;0.00476;0.000149;0.5554545;350
2752;451.7;0.0198;0.00476;0.000149;0.5601818;350
2754;451.7;0.0198;0.00476;0.000149;0.5601818;350
2756;451.8;0.0198;0.00476;0.000149;0.5625455;350
2758;451.8;0.0198;0.00476;0.000149;0.5601818;350
2760;451.8;0.0198;0.00476;0.000149;0.5601818;350
2762;451.8;0.0198;0.00476;0.000149;0.5578182;350
2764;451.8;0.0198;0.00476;0.000149;0.5578182;350
2766;451.7;0.0198;0.00476;0.000149;0.5578182;350
2768;451.7;0.0198;0.00476;0.000149;0.5578182;350
2770;451.7;0.0198;0.00476;0.000149;0.5554545;350
2772;451.6;0.0198;0.00476;0.000149;0.5554545;350
2774;451.6;0.0198;0.00476;0.000149;0.5554545;350
2776;451.6;0.0198;0.00476;0.000149;0.5554545;350
2778;451.6;0.0198;0.00476;0.000149;0.5601818;350
2780;451.6;0.0198;0.00476;0.000149;0.5578182;350
2782;451.7;0.0198;0.00476;0.000149;0.5601818;350
2784;451.7;0.0198;0.00476;0.000149;0.5578182;350
2786;451.7;0.0198;0.00476;0.000149;0.5578182;350
2788;451.6;0.0198;0.00476;0.000149;0.5578182;350
2790;451.6;0.0198;0.00476;0.000149;0.5554545;350
2792;451.5;0.0198;0.00476;0.000149;0.5554545;350
2794;451.5;0.0198;0.00476;0.000149;0.5530909;350
2796;451.5;0.0198;0.00476;0.000149;0.5554545;350
2798;451.4;0.0198;0.00476;0.000149;0.5530909;350
2800;451.4;0.0198;0.00476;0.000149;0.5554545;350
2802;451.4;0.0198;0.00476;0.000149;0.5554545;350
2804;451.4;0.0198;0.00476;0.000149;0.5578182;350
2806;451.4;0.0198;0.00476;0.000149;0.5578182;350
2808;451.5;0.0198;0.00476;0.000149;0.5578182;350
2810;451.5;0.0198;0.00476;0.000149;0.5601818;350
2812;451.5;0.0198;0.00476;0.000149;0.5578182;350
2814;451.5;0.0198;0.00476;0.000149;0.5601818;350
2816;451.5;0.0198;0.00476;0.000149;0.5578182;350
2818;451.5;0.0198;0.00476;0.000149;0.5601818;350
2820;451.5;0.0198;0.00476;0.000149;0.5578182;350
2822;451.4;0.0198;0.00476;0.000149;0.5554545;350
2824;451.4;0.0198;0.00476;0.000149;0.5554545;350
2826;451.3;0.0198;0.00476;0.000149;0.5530909;350
2828;451.3;0.0198;0.00476;0.000149;0.5530909;350
2830;451.2;0.0198;0.00476;0.000149;0.5530909;350
2832;451.1;0.0198;0.00476;0.000149;0.5554545;350
2834;451.2;0.0198;0.00476;0.000149;0.5554545;350
2836;451.2;0.0198;0.00476;0.000149;0.5578182;350
2838;451.2;0.0198;0.00476;0.000149;0.5578182;350
2840;451.2;0.0198;0.00476;0.000149;0.5554545;350
2842;451.2;0.0198;0.00476;0.000149;0.5554545;350
2844;451.2;0.0198;0.00476;0.000149;0.5554545;350
2846;451.2;0.0198;0.00476;0.000149;0.5554545;350
2848;451.1;0.0198;0.00476;0.000149;0.5530909;350
2850;451.1;0.0198;0.00476;0.000149;0.5554545;350
2852;451.1;0.0198;0.00476;0.000149;0.5554545;350
2854;451.1;0.0198;0.00476;0.000149;0.5530909;350
2856;451;0.0198;0.00476;0.000149;0.5530909;350
2858;451;0.0198;0.00476;0.000149;0.5530909;350
2860;451;0.0198;0.00476;0.000149;0.5530909;350
2862;451;0.0198;0.00476;0.000149;0.5530909;350
2864;451;0.0198;0.00476;0.000149;0.5554545;350
2866;451;0.0198;0.00476;0.000149;0.5554545;350
2868;451;0.0198;0.00476;0.000149;0.5554545;350
2870;451;0.0198;0.00476;0.000149;0.5554545;350
2872;451;0.0198;0.00476;0.000149;0.5554545;350
2874;451;0.0198;0.00476;0.000149;0.5554545;350
2876;451;0.0198;0.00476;0.000149;0.5554545;350
2878;451;0.0198;0.00476;0.000149;0.5554545;350
2880;451;0.0198;0.00476;0.000149;0.5530909;350
2882;450.9;0.0198;0.00476;0.000149;0.5530909;350
2884;450.9;0.0198;0.00476;0.000149;0.5507273;350
2886;450.9;0.0198;0.00476;0.000149;0.5507273;350
2888;450.8;0.0198;0.00476;0.000149;0.5507273;350
2890;450.8;0.0198;0.00476;0.000149;0.5507273;350
2892;450.8;0.0198;0.00476;0.000149;0.5530909;350
2894;450.8;0.0198;0.00476;0.000149;0.5530909;350
2896;450.8;0.0198;0.00476;0.000149;0.5554545;350
2898;450.8;0.0198;0.00476;0.000149;0.5554545;350
2900;450.9;0.0198;0.00476;0.000149;0.5554545;350
2902;450.9;0.0198;0.00476;0.000149;0.5554545;350
2904;450.9;0.0198;0.00476;0.000149;0.5554545;350
2906;450.9;0.0198;0.00476;0.000149;0.5530909;350
2908;450.8;0.0198;0.00476;0.000149;0.5507273;350
2910;450.8;0.0198;0.00476;0.000149;0.5507273;350
2912;450.7;0.0198;0.00476;0.000149;0.5483636;350
2914;450.6;0.0198;0.00476;0.000149;0.5483636;350
2916;450.5;0.0198;0.00476;0.000149;0.5507273;350
2918;450.5;0.0198;0.00476;0.000149;0.5530909;350
2920;450.6;0.0198;0.00476;0.000149;0.5530909;350
2922;450.6;0.0198;0.00476;0.000149;0.5530909;350
2924;450.6;0.0198;0.00476;0.000149;0.5530909;350
2926;450.6;0.0198;0.00476;0.000149;0.5507273;350
2928;450.6;0.0198;0.00476;0.000149;0.5507273;350
2930;450.6;0.0198;0.00476;0.000149;0.5507273;350
2932;450.5;0.0198;0.00476;0.000149;0.5507273;350
2934;450.5;0.0198;0.00476;0.000149;0.5507273;350
2936;450.5;0.0198;0.00476;0.000149;0.5507273;350
2938;450.5;0.0198;0.00476;0.000149;0.5507273;350
2940;450.5;0.0198;0.00476;0.000149;0.5530909;350
2942;450.6;0.0198;0.00476;0.000149;0.5554545;350
2944;450.6;0.0198;0.00476;0.000149;0.5530909;350
2946;450.6;0.0198;0.00476;0.000149;0.5530909;350
2948;450.6;0.0198;0.00476;0.000149;0.5507273;350
2950;450.5;0.0198;0.00476;0.000149;0.5507273;350
2952;450.5;0.0198;0.00476;0.000149;0.5483636;350
2954;450.4;0.0198;0.00476;0.000149;0.5483636;350
2956;450.3;0.0198;0.00476;0.000149;0.5483636;350
2958;450.3;0.0198;0.00476;0.000149;0.5483636;350
2960;450.3;0.0198;0.00476;0.000149;0.5530909;350
2962;450.3;0.0198;0.00476;0.000149;0.5530909;350
2964;450.4;0.0198;0.00476;0.000149;0.5530909;350
2966;450.4;0.0198;0.00476;0.000149;0.5507273;350
2968;450.4;0.0198;0.00476;0.000149;0.5507273;350
2970;450.4;0.0198;0.00476;0.000149;0.5483636;350
2972;450.3;0.0198;0.00476;0.000149;0.546;350
2974;450.3;0.0198;0.00476;0.000149;0.5483636;350
2976;450.2;0.0198;0.00476;0.000149;0.5507273;350
2978;450.3;0.0198;0.00476;0.000149;0.5530909;350
2980;450.3;0.0198;0.00476;0.000149;0.5507273;350
2982;450.3;0.0198;0.00476;0.000149;0.5507273;350
2984;450.3;0.0198;0.00476;0.000149;0.5507273;350
2986;450.3;0.0198;0.00476;0.000149;0.5483636;350
2988;450.3;0.0198;0.00476;0.000149;0.5483636;350
2990;450.2;0.0198;0.00476;0.000149;0.5483636;350
2992;450.2;0.0198;0.00476;0.000149;0.5483636;350
2994;450.2;0.0198;0.00476;0.000149;0.546;350
2996;450.2;0.0198;0.00476;0.000149;0.5483636;350
2998;450.2;0.0198;0.00476;0.000149;0.546;350
3000;450.2;0.0198;0.00476;0.000149;0.5483636;350
3002;450.2;0.0198;0.00476;0.000149;0.5483636;350
3004;450.2;0.0198;0.00476;0.000149;0.5507273;350
3006;450.3;0.0198;0.00476;0.000149;0.5530909;350
3008;450.3;0.0198;0.00476;0.000149;0.5507273;350
3010;450.4;0.0198;0.00476;0.000149;0.5507273;350
3012;450.3;0.0198;0.00476;0.000149;0.5507273;350
3014;450.3;0.0198;0.00476;0.000149;0.5507273;350
3016;450.3;0.0198;0.00476;0.000149;0.5483636;350
3018;450.2;0.0198;0.00476;0.000149;0.546;350
3020;450.2;0.0198;0.00476;0.000149;0.546;350
3022;450.1;0.0198;0.00476;0.000149;0.5483636;350
3024;450.2;0.0198;0.00476;0.000149;0.5507273;350
3026;450.2;0.0198;0.00476;0.000149;0.5507273;350
3028;450.3;0.0198;0.00476;0.000149;0.5507273;350
3030;450.3;0.0198;0.00476;0.000149;0.5483636;350
3032;450.3;0.0198;0.00476;0.000149;0.5507273;350
3034;450.3;0.0198;0.00476;0.000149;0.546;350
3036;450.2;0.0198;0.00476;0.000149;0.546;350
3038;450.2;0.0198;0.00476;0.000149;0.546;350
3040;450.2;0.0198;0.00476;0.000149;0.5483636;336
3042;450.2;0.0198;0.00476;0.000149;0.5507273;315
3044;450.2;0.0198;0.00476;0.000149;0.5483636;280
3046;450.2;0.0198;0.00476;0.000149;0.5483636;266
3048;450.2;0.0198;0.00476;0.000149;0.5436364;238
3050;450.2;0.0198;0.00476;0.000149;0.5483636;224
3052;450.2;0.0198;0.00476;0.000149;0.5483636;238
3054;450.1;0.0198;0.00476;0.000149;0.5483636;238
3056;450.2;0.0198;0.00476;0.000149;0.5483636;252
3058;450.2;0.0198;0.00476;0.000149;0.546;280
3060;450.1;0.0198;0.00476;0.000149;0.546;315
3062;450.1;0.0198;0.00476;0.000149;0.5483636;322
3064;450.2;0.0198;0.00476;0.000149;0.5507273;350
3066;450.2;0.0198;0.00476;0.000149;0.5483636;350
3068;450.2;0.0198;0.00476;0.000149;0.546;350
3070;450.1;0.0198;0.00476;0.000149;0.546;350
3072;450.1;0.0198;0.00476;0.000149;0.546;350
3074;450.1;0.0198;0.00476;0.000149;0.5483636;350
3076;450.2;0.0198;0.00476;0.000149;0.5483636;350
3078;450.2;0.0198;0.00476;0.000149;0.5507273;350
3080;450.2;0.0198;0.00476;0.000149;0.5483636;350
3082;450.2;0.0198;0.00476;0.000149;0.546;350
3084;450.2;0.0198;0.00476;0.000149;0.546;350
3086;450.2;0.0198;0.00476;0.000149;0.5436364;350
3088;450.2;0.0198;0.00476;0.000149;0.5483636;350
3090;450.2;0.0198;0.00476;0.000149;0.5483636;350
3092;450.2;0.0198;0.00476;0.000149;0.5483636;350
3094;450.2;0.0198;0.00476;0.000149;0.546;350
3096;450.2;0.0198;0.00476;0.000149;0.5483636;350
3098;450.2;0.0198;0.00476;0.000149;0.546;350
3100;450.2;0.0198;0.00476;0.000149;0.5507273;350
3102;450.2;0.0198;0.00476;0.000149;0.5483636;350
3104;450.2;0.0198;0.00476;0.000149;0.546;350
3106;450.2;0.0198;0.00476;0.000149;0.546;350
3108;450.1;0.0198;0.00476;0.000149;0.5436364;350
3110;450.1;0.0198;0.00476;0.000149;0.546;350
3112;450.1;0.0198;0.00476;0.000149;0.5483636;350
3114;450.1;0.0198;0.00476;0.000149;0.5483636;350
3116;450.1;0.0198;0.00476;0.000149;0.546;350
3118;450.1;0.0198;0.00476;0.000149;0.546;350
3120;450.1;0.0198;0.00476;0.000149;0.546;350
3122;450.1;0.0198;0.00476;0.000149;0.546;350
3124;450.1;0.0198;0.00476;0.000149;0.5507273;350
3126;450.1;0.0198;0.00476;0.000149;0.546;350
3128;450.2;0.0198;0.00476;0.000149;0.5483636;350
3130;450.1;0.0198;0.00476;0.000149;0.546;350
3132;450.1;0.0198;0.00476;0.000149;0.546;350
3134;450.1;0.0198;0.00476;0.000149;0.5436364;350
3136;450.1;0.0198;0.00476;0.000149;0.5436364;350
3138;450;0.0198;0.00476;0.000149;0.546;350
3140;450;0.0198;0.00476;0.000149;0.5436364;350
3142;450;0.0198;0.00476;0.000149;0.546;350
3144;450.1;0.0198;0.00476;0.000149;0.546;350
3146;450.1;0.0198;0.00476;0.000149;0.546;350
3148;450.1;0.0198;0.00476;0.000149;0.546;350
3150;450.1;0.0198;0.00476;0.000149;0.546;350
3152;450;0.0198;0.00476;0.000149;0.5436364;350
3154;450;0.0198;0.00476;0.000149;0.5412727;350
3156;450;0.0198;0.00476;0.000149;0.5436364;350
3158;450;0.0198;0.00476;0.000149;0.5436364;350
3160;450;0.0198;0.00476;0.000149;0.5483636;350
3162;450;0.0198;0.00476;0.000149;0.546;350
3164;450.1;0.0198;0.00476;0.000149;0.546;350
3166;450.1;0.0198;0.00476;0.000149;0.546;350
3168;450.1;0.0198;0.00476;0.000149;0.546;350
3170;450.1;0.0198;0.00476;0.000149;0.546;350
3172;450.1;0.0198;0.00476;0.000149;0.5436364;350
3174;450;0.0198;0.00476;0.000149;0.5436364;350
3176;450;0.0198;0.00476;0.000149;0.5412727;350
3178;450;0.0198;0.00476;0.000149;0.5436364;350
3180;450;0.0198;0.00476;0.000149;0.5436364;350
3182;450;0.0198;0.00476;0.000149;0.5436364;350
3184;450;0.0198;0.00476;0.000149;0.546;350
3186;450;0.0198;0.00476;0.000149;0.546;350
3188;450.1;0.0198;0.00476;0.000149;0.546;350
3190;450.1;0.0198;0.00476;0.000149;0.546;350
3192;450.1;0.0198;0.00476;0.000149;0.546;350
3194;450;0.0198;0.00476;0.000149;0.5412727;350
3196;450;0.0198;0.00476;0.000149;0.5436364;350
3198;450;0.0198;0.00476;0.000149;0.546;350
3200;450;0.0198;0.00476;0.000149;0.5483636;350
3202;450;0.0198;0.00476;0.000149;0.5483636;350
3204;450.1;0.0198;0.00476;0.000149;0.546;350
3206;450;0.0198;0.00476;0.000149;0.5436364;350
3208;450;0.0198;0.00476;0.000149;0.5412727;350
3210;449.9;0.0198;0.00476;0.000149;0.5412727;350
3212;449.9;0.0198;0.00476;0.000149;0.5412727;350
3214;449.9;0.0198;0.00476;0.000149;0.5436364;350
3216;449.9;0.0198;0.00476;0.000149;0.5436364;350
3218;449.9;0.0198;0.00476;0.000149;0.5436364;350
3220;449.9;0.0198;0.00476;0.000149;0.5436364;350
3222;449.9;0.0198;0.00476;0.000149;0.5436364;350
3224;449.9;0.0198;0.00476;0.000149;0.5436364;350
3226;449.9;0.0198;0.00476;0.000149;0.5412727;350
3228;449.8;0.0198;0.00476;0.000149;0.5412727;350
3230;449.8;0.0198;0.00476;0.000149;0.5412727;350
3232;449.8;0.0198;0.00476;0.000149;0.5412727;350
3234;449.8;0.0198;0.00476;0.000149;0.5412727;350
3236;449.8;0.0198;0.00476;0.000149;0.5412727;350
3238;449.8;0.0198;0.00476;0.000149;0.5436364;350
3240;449.8;0.0198;0.00476;0.000149;0.5436364;350
3242;449.9;0.0198;0.00476;0.000149;0.546;350
3244;449.9;0.0198;0.00476;0.000149;0.5436364;350
3246;449.9;0.0198;0.00476;0.000149;0.5436364;350
3248;449.9;0.0198;0.00476;0.000149;0.5412727;350
3250;449.8;0.0198;0.00476;0.000149;0.5412727;350
3252;449.7;0.0198;0.00476;0.000149;0.5389091;350
3254;449.7;0.0198;0.00476;0.000149;0.5436364;350
3256;449.7;0.0198;0.00476;0.000149;0.5436364;350
3258;449.7;0.0198;0.00476;0.000149;0.5436364;350
3260;449.7;0.0198;0.00476;0.000149;0.5436364;350
3262;449.7;0.0198;0.00476;0.000149;0.5389091;350
3264;449.7;0.0198;0.00476;0.000149;0.5389091;350
3266;449.7;0.0198;0.00476;0.000149;0.5389091;350
3268;449.6;0.0198;0.00476;0.000149;0.5412727;350
3270;449.7;0.0198;0.00476;0.000149;0.5436364;350
3272;449.7;0.0198;0.00476;0.000149;0.5412727;322
3274;449.7;0.0198;0.00476;0.000149;0.5412727;294
3276;449.7;0.0198;0.00476;0.000149;0.5389091;287
3278;449.6;0.0198;0.00476;0.000149;0.5389091;252
3280;449.6;0.0198;0.00476;0.000149;0.5412727;217
3282;449.6;0.0198;0.00476;0.000149;0.5436364;238
3284;449.6;0.0198;0.00476;0.000149;0.5412727;238
3286;449.6;0.0198;0.00476;0.000149;0.5389091;238
3288;449.6;0.0198;0.00476;0.000149;0.5389091;273
3290;449.5;0.0198;0.00476;0.000149;0.5365455;308
3292;449.5;0.0198;0.00476;0.000149;0.5412727;315
3294;449.5;0.0198;0.00476;0.000149;0.5412727;350
3296;449.6;0.0198;0.00476;0.000149;0.5436364;350
3298;449.5;0.0198;0.00476;0.000149;0.5389091;350
3300;449.5;0.0198;0.00476;0.000149;0.5389091;350
3302;449.5;0.0198;0.00476;0.000149;0.5365455;350
3304;449.5;0.0198;0.00476;0.000149;0.5365455;350
3306;449.5;0.0198;0.00476;0.000149;0.5389091;350
3308;449.4;0.0198;0.00476;0.000149;0.5365455;350
3310;449.4;0.0198;0.00476;0.000149;0.5389091;350
3312;449.4;0.0198;0.00476;0.000149;0.5389091;350
3314;449.5;0.0198;0.00476;0.000149;0.5389091;350
3316;449.5;0.0198;0.00476;0.000149;0.5389091;350
3318;449.5;0.0198;0.00476;0.000149;0.5412727;350
3320;449.5;0.0198;0.00476;0.000149;0.5412727;350
3322;449.5;0.0198;0.00476;0.000149;0.5389091;350
3324;449.5;0.0198;0.00476;0.000149;0.5389091;350
3326;449.5;0.0198;0.00476;0.000149;0.5365455;350
3328;449.4;0.0198;0.00476;0.000149;0.5365455;350
3330;449.4;0.0198;0.00476;0.000149;0.5365455;350
3332;449.4;0.0198;0.00476;0.000149;0.5365455;350
3334;449.3;0.0198;0.00476;0.000149;0.5341818;350
3336;449.3;0.0198;0.00476;0.000149;0.5341818;350
3338;449.3;0.0198;0.00476;0.000149;0.5365455;350
3340;449.3;0.0198;0.00476;0.000149;0.5365455;350
3342;449.3;0.0198;0.00476;0.000149;0.5389091;350
3344;449.3;0.0198;0.00476;0.000149;0.5365455;350
3346;449.3;0.0198;0.00476;0.000149;0.5365455;350
3348;449.4;0.0198;0.00476;0.000149;0.5365455;350
3350;449.4;0.0198;0.00476;0.000149;0.5365455;350
3352;449.4;0.0198;0.00476;0.000149;0.5389091;350
3354;449.4;0.0198;0.00476;0.000149;0.5365455;350
3356;449.4;0.0198;0.00476;0.000149;0.5389091;350
3358;449.4;0.0198;0.00476;0.000149;0.5365455;350
3360;449.4;0.0198;0.00476;0.000149;0.5389091;350
3362;449.4;0.0198;0.00476;0.000149;0.5365455;350
3364;449.4;0.0198;0.00476;0.000149;0.5365455;350
3366;449.3;0.0198;0.00476;0.000149;0.5341818;350
3368;449.3;0.0198;0.00476;0.000149;0.5341818;350
3370;449.3;0.0198;0.00476;0.000149;0.5341818;350
3372;449.3;0.0198;0.00476;0.000149;0.5341818;350
3374;449.2;0.0198;0.00476;0.000149;0.5389091;350
3376;449.3;0.0198;0.00476;0.000149;0.5389091;350
3378;449.3;0.0198;0.00476;0.000149;0.5389091;350
3380;449.3;0.0198;0.00476;0.000149;0.5341818;350
3382;449.3;0.0198;0.00476;0.000149;0.5365455;350
3384;449.3;0.0198;0.00476;0.000149;0.5318182;350
3386;449.2;0.0198;0.00476;0.000149;0.5318182;350
3388;449.2;0.0198;0.00476;0.000149;0.5365455;350
3390;449.2;0.0198;0.00476;0.000149;0.5365455;350
3392;449.2;0.0198;0.00476;0.000149;0.5365455;350
3394;449.3;0.0198;0.00476;0.000149;0.5341818;350
3396;449.3;0.0198;0.00476;0.000149;0.5341818;350
3398;449.2;0.0198;0.00476;0.000149;0.5341818;350
3400;449.2;0.0198;0.00476;0.000149;0.5318182;350
3402;449.1;0.0198;0.00476;0.000149;0.5341818;350
3404;449.2;0.0198;0.00476;0.000149;0.5365455;350
3406;449.3;0.0198;0.00476;0.000149;0.5389091;350
3408;449.3;0.0198;0.00476;0.000149;0.5365455;350
3410;449.3;0.0198;0.00476;0.000149;0.5365455;350
3412;449.3;0.0198;0.00476;0.000149;0.5341818;350
3414;449.3;0.0198;0.00476;0.000149;0.5341818;350
3416;449.3;0.0198;0.00476;0.000149;0.5318182;350
3418;449.1;0.0198;0.00476;0.000149;0.5318182;350
3420;449.2;0.0198;0.00476;0.000149;0.5318182;350
3422;449.2;0.0198;0.00476;0.000149;0.5318182;350
3424;449.2;0.0198;0.00476;0.000149;0.5365455;350
3426;449.3;0.0198;0.00476;0.000149;0.5365455;350
3428;449.3;0.0198;0.00476;0.000149;0.5365455;350
3430;449.3;0.0198;0.00476;0.000149;0.5341818;315
3432;449.3;0.0198;0.00476;0.000149;0.5341818;308
3434;449.3;0.0198;0.00476;0.000149;0.5318182;273
3436;449.3;0.0198;0.00476;0.000149;0.5318182;238
3438;449.3;0.0198;0.00476;0.000149;0.5318182;231
3440;449.3;0.0198;0.00476;0.000149;0.5341818;238
3442;449.3;0.0198;0.00476;0.000149;0.5365455;210
3444;449.4;0.0198;0.00476;0.000149;0.5365455;238
3446;449.4;0.0198;0.00476;0.000149;0.5341818;273
3448;449.4;0.0198;0.00476;0.000149;0.5341818;273
3450;449.4;0.0198;0.00476;0.000149;0.5318182;308
3452;449.4;0.0198;0.00476;0.000149;0.5318182;350
3454;449.3;0.0198;0.00476;0.000149;0.5294545;350
3456;449.3;0.0198;0.00476;0.000149;0.5341818;350
3458;449.3;0.0198;0.00476;0.000149;0.5341818;350
3460;449.3;0.0198;0.00476;0.000149;0.5341818;350
3462;449.4;0.0198;0.00476;0.000149;0.5341818;350
3464;449.4;0.0198;0.00476;0.000149;0.5341818;350
3466;449.4;0.0198;0.00476;0.000149;0.5318182;350
3468;449.3;0.0198;0.00476;0.000149;0.5318182;350
3470;449.3;0.0198;0.00476;0.000149;0.5318182;350
3472;449.3;0.0198;0.00476;0.000149;0.5318182;350
3474;449.3;0.0198;0.00476;0.000149;0.5341818;350
3476;449.4;0.0198;0.00476;0.000149;0.5341818;350
3478;449.4;0.0198;0.00476;0.000149;0.5341818;350
3480;449.4;0.0198;0.00476;0.000149;0.5318182;350
3482;449.4;0.0198;0.00476;0.000149;0.5318182;350
3484;449.3;0.0198;0.00476;0.000149;0.5294545;350
3486;449.3;0.0198;0.00476;0.000149;0.5294545;350
3488;449.3;0.0198;0.00476;0.000149;0.5318182;350
3490;449.3;0.0198;0.00476;0.000149;0.5318182;350
3492;449.3;0.0198;0.00476;0.000149;0.5341818;350
3494;449.3;0.0198;0.00476;0.000149;0.5318182;350
3496;449.4;0.0198;0.00476;0.000149;0.5318182;350
3498;449.3;0.0198;0.00476;0.000149;0.5294545;350
3500;449.3;0.0198;0.00476;0.000149;0.5294545;350
3502;449.3;0.0198;0.00476;0.000149;0.5318182;350
3504;449.3;0.0198;0.00476;0.000149;0.5318182;350
3506;449.2;0.0198;0.00476;0.000149;0.5341818;350
3508;449.4;0.0198;0.00476;0.000149;0.5341818;350
3510;449.3;0.0198;0.00476;0.000149;0.5318182;350
3512;449.4;0.0198;0.00476;0.000149;0.5318182;350
3514;449.4;0.0198;0.00476;0.000149;0.5318182;350
3516;449.2;0.0198;0.00476;0.000149;0.5294545;350
3518;449.3;0.0198;0.00476;0.000149;0.5294545;350
3520;449.3;0.0198;0.00476;0.000149;0.5341818;350
3522;449.3;0.0198;0.00476;0.000149;0.5341818;350
3524;449.3;0.0198;0.00476;0.000149;0.5341818;350
3526;449.3;0.0198;0.00476;0.000149;0.5318182;350
3528;449.4;0.0198;0.00476;0.000149;0.5318182;350
3530;449.3;0.0198;0.00476;0.000149;0.5294545;350
3532;449.2;0.0198;0.00476;0.000149;0.5270909;350
3534;449.2;0.0198;0.00476;0.000149;0.5294545;350
3536;449.1;0.0198;0.00476;0.000149;0.5318182;350
3538;449.2;0.0198;0.00476;0.000149;0.5341818;350
3540;449.2;0.0198;0.00476;0.000149;0.5318182;350
3542;449.3;0.0198;0.00476;0.000149;0.5341818;350
3544;449.3;0.0198;0.00476;0.000149;0.5318182;350
3546;449.3;0.0198;0.00476;0.000149;0.5294545;350
3548;449.3;0.0198;0.00476;0.000149;0.5294545;350
3550;449.2;0.0198;0.00476;0.000149;0.5294545;350
3552;449.1;0.0198;0.00476;0.000149;0.5270909;329
3554;449.1;0.0198;0.00476;0.000149;0.5247273;308
3556;449.2;0.0198;0.00476;0.000149;0.5294545;273
3558;449.1;0.0198;0.00476;0.000149;0.5294545;259
3560;449.2;0.0198;0.00476;0.000149;0.5318182;231
3562;449.1;0.0198;0.00476;0.000149;0.5294545;217
3564;449.2;0.0198;0.00476;0.000149;0.5294545;238
3566;449.2;0.0198;0.00476;0.000149;0.5270909;238
3568;449.1;0.0198;0.00476;0.000149;0.5270909;252
3570;449.1;0.0198;0.00476;0.000149;0.5270909;280
3572;449.1;0.0198;0.00476;0.000149;0.5270909;315
3574;449.1;0.0198;0.00476;0.000149;0.5294545;322
3576;449.1;0.0198;0.00476;0.000149;0.5270909;350
3578;449.1;0.0198;0.00476;0.000149;0.5294545;350
3580;449.1;0.0198;0.00476;0.000149;0.5270909;350
3582;449.1;0.0198;0.00476;0.000149;0.5270909;350
3584;449.1;0.0198;0.00476;0.000149;0.5247273;350
3586;449.1;0.0198;0.00476;0.000149;0.5270909;350
3588;449.1;0.0198;0.00476;0.000149;0.5318182;350
3590;449.2;0.0198;0.00476;0.000149;0.5294545;350
3592;449.2;0.0198;0.00476;0.000149;0.5294545;350
3594;449.3;0.0198;0.00476;0.000149;0.5270909;350
3596;449.3;0.0198;0.00476;0.000149;0.5294545;350
3598;449.1;0.0198;0.00476;0.000149;0.5247273;350
3600;449.2;0.0198;0.00476;0.000149;0.5247273;350
3602;449.2;0.0198;0.00476;0.000149;0.5294545;350
3604;449.2;0.0198;0.00476;0.000149;0.5294545;350
3606;449.2;0.0198;0.00476;0.000149;0.5294545;350
3608;449.2;0.0198;0.00476;0.000149;0.5270909;350
3610;449.2;0.0198;0.00476;0.000149;0.5270909;350
3612;449.2;0.0198;0.00476;0.000149;0.5247273;350
3614;449.1;0.0198;0.00476;0.000149;0.5294545;350
3616;449.2;0.0198;0.00476;0.000149;0.5294545;350
3618;449.2;0.0198;0.00476;0.000149;0.5294545;350
3620;449.2;0.0198;0.00476;0.000149;0.5294545;350
3622;449.2;0.0198;0.00476;0.000149;0.5270909;350
3624;449.2;0.0198;0.00476;0.000149;0.5270909;350
3626;449.2;0.0198;0.00476;0.000149;0.5247273;350
3628;449.2;0.0198;0.00476;0.000149;0.5247273;350
3630;449.1;0.0198;0.00476;0.000149;0.5247273;350
3632;449.1;0.0198;0.00476;0.000149;0.5270909;350
3634;449.2;0.0198;0.00476;0.000149;0.5294545;350
3636;449.3;0.0198;0.00476;0.000149;0.5270909;350
3638;449.3;0.0198;0.00476;0.000149;0.5270909;350
3640;449.2;0.0198;0.00476;0.000149;0.5247273;350
3642;449.3;0.0198;0.00476;0.000149;0.5270909;350
3644;449.3;0.0198;0.00476;0.000149;0.5247273;350
3646;449.3;0.0198;0.00476;0.000149;0.5270909;350
3648;449.3;0.0198;0.00476;0.000149;0.5270909;350
3650;449.3;0.0198;0.00476;0.000149;0.5270909;350
3652;449.3;0.0198;0.00476;0.000149;0.5270909;350
3654;449.4;0.0198;0.00476;0.000149;0.5270909;350
3656;449.4;0.0198;0.00476;0.000149;0.5270909;350
3658;449.4;0.0198;0.00476;0.000149;0.5270909;350
3660;449.4;0.0198;0.00476;0.000149;0.5270909;350
3662;449.3;0.0198;0.00476;0.000149;0.5270909;350
3664;449.3;0.0198;0.00476;0.000149;0.5270909;350
3666;449.3;0.0198;0.00476;0.000149;0.5270909;350
3668;449.3;0.0198;0.00476;0.000149;0.5247273;350
3670;449.3;0.0198;0.00476;0.000149;0.5247273;350
3672;449.3;0.0198;0.00476;0.000149;0.5247273;350
3674;449.3;0.0198;0.00476;0.000149;0.5270909;350
3676;449.3;0.0198;0.00476;0.000149;0.5247273;350
3678;449.2;0.0198;0.00476;0.000149;0.5247273;350
3680;449.3;0.0198;0.00476;0.000149;0.5247273;350
3682;449.3;0.0198;0.00476;0.000149;0.5247273;350
3684;449.4;0.0198;0.00476;0.000149;0.5247273;350
3686;449.4;0.0198;0.00476;0.000149;0.5247273;350
3688;449.4;0.0198;0.00476;0.000149;0.5270909;350
3690;449.4;0.0198;0.00476;0.000149;0.5318182;350
3692;449.4;0.0198;0.00476;0.000149;0.5318182;350
3694;449.5;0.0198;0.00476;0.000149;0.5270909;350
3696;449.5;0.0198;0.00476;0.000149;0.5270909;350
3698;449.4;0.0198;0.00476;0.000149;0.5223636;350
3700;449.4;0.0198;0.00476;0.000149;0.5223636;350
3702;449.3;0.0198;0.00476;0.000149;0.5223636;350
3704;449.3;0.0198;0.00476;0.000149;0.5247273;350
3706;449.2;0.0198;0.00476;0.000149;0.5270909;350
3708;449.4;0.0198;0.00476;0.000149;0.5270909;350
3710;449.3;0.0198;0.00476;0.000149;0.5270909;350
3712;449.4;0.0198;0.00476;0.000149;0.5247273;350
3714;449.3;0.0198;0.00476;0.000149;0.5247273;350
3716;449.4;0.0198;0.00476;0.000149;0.5223636;350
3718;449.2;0.0198;0.00476;0.000149;0.5223636;350
3720;449.2;0.0198;0.00476;0.000149;0.5223636;350
3722;449.3;0.0198;0.00476;0.000149;0.5247273;350
3724;449.2;0.0198;0.00476;0.000149;0.5270909;350
3726;449.4;0.0198;0.00476;0.000149;0.5247273;350
3728;449.4;0.0198;0.00476;0.000149;0.5247273;350
3730;449.4;0.0198;0.00476;0.000149;0.5223636;350
3732;449.4;0.0198;0.00476;0.000149;0.5223636;350
3734;449.4;0.0198;0.00476;0.000149;0.5223636;350
3736;449.3;0.0198;0.00476;0.000149;0.5247273;350
3738;449.4;0.0198;0.00476;0.000149;0.5270909;350
3740;449.4;0.0198;0.00476;0.000149;0.5247273;350
3742;449.5;0.0198;0.00476;0.000149;0.5270909;350
3744;449.5;0.0198;0.00476;0.000149;0.5247273;350
3746;449.4;0.0198;0.00476;0.000149;0.5247273;350
3748;449.4;0.0198;0.00476;0.000149;0.5247273;350
3750;449.4;0.0198;0.00476;0.000149;0.5247273;350
3752;449.3;0.0198;0.00476;0.000149;0.5247273;350
3754;449.3;0.0198;0.00476;0.000149;0.5223636;350
3756;449.4;0.0198;0.00476;0.000149;0.5247273;350
3758;449.3;0.0198;0.00476;0.000149;0.5223636;350
3760;449.4;0.0198;0.00476;0.000149;0.5223636;350
3762;449.2;0.0198;0.00476;0.000149;0.52;350
3764;449.2;0.0198;0.00476;0.000149;0.52;350
3766;449.2;0.0198;0.00476;0.000149;0.5223636;350
3768;449.2;0.0198;0.00476;0.000149;0.5223636;350
3770;449.2;0.0198;0.00476;0.000149;0.5247273;350
3772;449.3;0.0198;0.00476;0.000149;0.5247273;350
3774;449.4;0.0198;0.00476;0.000149;0.5247273;350
3776;449.3;0.0198;0.00476;0.000149;0.5223636;350
3778;449.3;0.0198;0.00444;0.000139;0.5223636;308
3780;449.3;0.0198;0.00443;0.000138;0.52;273
3782;449.2;0.0198;0.00444;0.000139;0.52;273
3784;449.2;0.0198;0.00445;0.000139;0.52;238
3786;449.2;0.0198;0.00444;0.000139;0.52;210
3788;449.2;0.0198;0.00444;0.000139;0.5247273;238
3790;449.3;0.0198;0.00446;0.000139;0.5247273;238
3792;449.3;0.0198;0.00447;0.000140;0.5247273;238
3794;449.4;0.0198;0.00447;0.000140;0.5247273;273
3796;449.4;0.0198;0.00447;0.000140;0.5223636;301
3798;449.3;0.0198;0.00449;0.000140;0.52;315
3800;449.4;0.0198;0.0045;0.000141;0.52;350
3802;449.3;0.0198;0.00451;0.000141;0.52;350
3804;449.2;0.0198;0.00451;0.000141;0.5223636;350
3806;449.3;0.0198;0.00451;0.000141;0.5247273;350
3808;449.4;0.0198;0.00455;0.000142;0.5223636;350
3810;449.3;0.0198;0.00456;0.000143;0.5247273;350
3812;449.3;0.0198;0.00456;0.000143;0.52;350
3814;449.4;0.0198;0.00461;0.000144;0.52;350
3816;449.3;0.0198;0.00461;0.000144;0.52;350
3818;449.3;0.0198;0.00465;0.000145;0.5176364;350
3820;449.1;0.0198;0.00464;0.000145;0.52;350
3822;449.3;0.0198;0.00465;0.000145;0.5223636;350
3824;449.2;0.0198;0.00468;0.000146;0.5223636;350
3826;449.2;0.0198;0.00469;0.000147;0.52;350
3828;449.2;0.0198;0.00469;0.000147;0.52;350
3830;449.2;0.0198;0.00472;0.000148;0.52;350
3832;449.2;0.0198;0.00471;0.000147;0.52;350
3834;449.2;0.0198;0.00472;0.000148;0.5176364;350
3836;449.1;0.0198;0.00474;0.000148;0.5176364;350
3838;449.1;0.0198;0.00474;0.000148;0.52;350
3840;449.1;0.0198;0.00474;0.000148;0.5223636;350
3842;449.1;0.0198;0.00475;0.000148;0.5223636;350
3844;449.2;0.0198;0.00476;0.000149;0.52;350
3846;449.2;0.0198;0.00475;0.000148;0.52;350
3848;449.1;0.0198;0.00477;0.000149;0.5176364;350
3850;449.1;0.0198;0.00476;0.000149;0.52;350
3852;449.1;0.0198;0.00477;0.000149;0.52;350
3854;449.2;0.0198;0.00477;0.000149;0.52;350
3856;449.1;0.0198;0.00478;0.000149;0.52;350
3858;449.1;0.0198;0.00478;0.000149;0.5176364;350
3860;449.1;0.0198;0.00478;0.000149;0.5176364;350
3862;449.1;0.0198;0.00479;0.000150;0.5152727;350
3864;449;0.0198;0.00479;0.000150;0.5176364;350
3866;449;0.0198;0.00478;0.000149;0.52;350
3868;449.1;0.0198;0.00479;0.000150;0.52;350
3870;449.1;0.0198;0.00479;0.000150;0.5223636;350
3872;449.1;0.0198;0.0048;0.000150;0.5176364;350
3874;449.1;0.0198;0.00479;0.000150;0.52;350
3876;449.2;0.0198;0.00479;0.000150;0.5152727;350
3878;449.1;0.0198;0.0048;0.000150;0.5176364;350
3880;449;0.0198;0.0048;0.000150;0.5152727;350
3882;449;0.0198;0.0048;0.000150;0.5176364;350
3884;449;0.0198;0.0048;0.000150;0.52;350
3886;449;0.0198;0.00481;0.000150;0.5176364;350
3888;449;0.0198;0.0048;0.000150;0.52;350
3890;449;0.0198;0.00481;0.000150;0.5176364;350
3892;449;0.0198;0.0048;0.000150;0.5176364;350
3894;449;0.0198;0.00481;0.000150;0.5152727;350
3896;449;0.0198;0.00481;0.000150;0.5176364;350
3898;449;0.0198;0.0048;0.000150;0.52;350
3900;449.1;0.0198;0.00481;0.000150;0.5176364;350
3902;449;0.0198;0.00481;0.000150;0.52;350
3904;449;0.0198;0.00481;0.000150;0.5152727;350
3906;449;0.0198;0.00481;0.000150;0.5176364;350
3908;449;0.0198;0.00481;0.000150;0.5152727;350
3910;448.9;0.0198;0.00481;0.000150;0.5152727;350
3912;449;0.0198;0.00481;0.000150;0.5152727;350
3914;448.9;0.0198;0.00481;0.000150;0.5152727;350
3916;448.9;0.0198;0.00481;0.000150;0.5152727;350
3918;448.9;0.0198;0.00481;0.000150;0.5176364;350
3920;448.9;0.0198;0.00482;0.000151;0.52;350
3922;449;0.0198;0.00481;0.000150;0.5176364;350
3924;449;0.0198;0.00481;0.000150;0.5176364;350
3926;449.1;0.0198;0.00481;0.000150;0.5152727;350
3928;448.9;0.0198;0.00481;0.000150;0.5152727;336
3930;448.9;0.0198;0.00482;0.000151;0.5129091;301
3932;448.9;0.0198;0.00481;0.000150;0.5152727;301
3934;448.9;0.0198;0.00482;0.000151;0.5152727;266
3936;448.8;0.0198;0.00481;0.000150;0.5152727;231
3938;448.9;0.0198;0.00481;0.000150;0.5152727;238
3940;448.9;0.0198;0.00482;0.000151;0.5129091;273
3942;448.8;0.0198;0.00481;0.000150;0.5129091;280
3944;448.8;0.0198;0.00481;0.000150;0.5129091;308
3946;448.8;0.0198;0.00482;0.000151;0.5152727;343
3948;448.8;0.0198;0.00482;0.000151;0.5152727;350
3950;448.8;0.0198;0.00482;0.000151;0.5152727;350
3952;448.8;0.0198;0.00481;0.000150;0.5152727;350
3954;449;0.0198;0.00482;0.000151;0.5152727;350
3956;448.9;0.0198;0.00481;0.000150;0.5152727;350
3958;448.8;0.0198;0.00482;0.000151;0.5129091;350
3960;448.8;0.0198;0.00481;0.000150;0.5129091;350
3962;448.8;0.0198;0.00482;0.000151;0.5105455;350
3964;448.8;0.0198;0.00481;0.000150;0.5105455;350
3966;448.8;0.0198;0.00482;0.000151;0.5105455;350
3968;448.7;0.0198;0.00482;0.000151;0.5129091;350
3970;448.7;0.0198;0.00481;0.000150;0.5152727;350
3972;448.8;0.0198;0.00482;0.000151;0.5129091;350
3974;448.8;0.0198;0.00481;0.000150;0.5129091;350
3976;448.8;0.0198;0.00482;0.000151;0.5105455;350
3978;448.8;0.0198;0.00481;0.000150;0.5105455;350
3980;448.9;0.0198;0.00482;0.000151;0.5105455;350
3982;448.8;0.0198;0.00482;0.000151;0.5105455;350
3984;448.8;0.0198;0.00482;0.000151;0.5152727;350
3986;448.8;0.0198;0.00481;0.000150;0.5152727;350
3988;449;0.0198;0.00482;0.000151;0.5152727;350
3990;448.9;0.0198;0.00481;0.000150;0.5129091;350
3992;449;0.0198;0.00481;0.000150;0.5129091;350
3994;448.9;0.0198;0.00482;0.000151;0.5105455;350
3996;449;0.0198;0.00482;0.000151;0.5129091;350
3998;448.9;0.0198;0.00482;0.000151;0.5129091;350
4000;449;0.0198;0.00482;0.000151;0.5152727;350
4002;448.9;0.0198;0.00482;0.000151;0.5152727;350
4004;449;0.0198;0.00482;0.000151;0.5129091;350
4006;448.9;0.0198;0.00482;0.000151;0.5129091;350
4008;449;0.0198;0.00481;0.000150;0.5105455;350
4010;448.9;0.0198;0.00482;0.000151;0.5105455;350
4012;448.9;0.0198;0.00481;0.000150;0.5081818;350
4014;448.9;0.0198;0.00482;0.000151;0.5105455;350
4016;448.8;0.0198;0.00482;0.000151;0.5129091;350
4018;448.9;0.0198;0.00482;0.000151;0.5129091;350
4020;448.9;0.0198;0.00482;0.000151;0.5129091;350
4022;448.9;0.0198;0.00482;0.000151;0.5105455;350
4024;448.9;0.0198;0.00482;0.000151;0.5129091;350
4026;448.8;0.0198;0.00481;0.000150;0.5081818;350
4028;448.9;0.0198;0.00481;0.000150;0.5129091;350
4030;448.8;0.0198;0.00482;0.000151;0.5129091;350
4032;448.9;0.0198;0.00481;0.000150;0.5129091;350
4034;449;0.0198;0.00482;0.000151;0.5105455;350
4036;448.9;0.0198;0.00482;0.000151;0.5105455;350
4038;448.9;0.0198;0.00481;0.000150;0.5105455;350
4040;448.9;0.0198;0.00482;0.000151;0.5081818;350
4042;448.8;0.0198;0.00481;0.000150;0.5105455;350
4044;448.8;0.0198;0.00482;0.000151;0.5105455;350
4046;448.9;0.0198;0.00481;0.000150;0.5129091;350
4048;448.9;0.0198;0.00482;0.000151;0.5105455;350
4050;448.8;0.0198;0.00482;0.000151;0.5105455;350
4052;448.9;0.0198;0.00481;0.000150;0.5105455;350
4054;448.9;0.0198;0.00481;0.000150;0.5105455;350
4056;448.8;0.0198;0.00482;0.000151;0.5105455;350
4058;448.8;0.0198;0.00482;0.000151;0.5081818;350
4060;448.8;0.0198;0.00481;0.000150;0.5105455;350
4062;448.8;0.0198;0.00481;0.000150;0.5081818;350
4064;448.8;0.0198;0.00481;0.000150;0.5081818;350
4066;448.8;0.0198;0.00482;0.000151;0.5081818;350
4068;448.7;0.0198;0.00481;0.000150;0.5081818;350
4070;448.7;0.0198;0.00482;0.000151;0.5081818;350
4072;448.7;0.0198;0.00482;0.000151;0.5058182;350
4074;448.7;0.0198;0.00481;0.000150;0.5081818;350
4076;448.7;0.0198;0.00482;0.000151;0.5081818;350
4078;448.7;0.0198;0.00481;0.000150;0.5081818;350
4080;448.8;0.0198;0.00482;0.000151;0.5105455;350
4082;448.8;0.0198;0.00482;0.000151;0.5105455;350
4084;448.8;0.0198;0.00481;0.000150;0.5105455;350
4086;448.7;0.0198;0.00482;0.000151;0.5081818;350
4088;448.8;0.0198;0.00481;0.000150;0.5105455;350
4090;448.8;0.0198;0.00481;0.000150;0.5081818;350
4092;448.8;0.0198;0.00481;0.000150;0.5081818;350
4094;448.8;0.0198;0.00481;0.000150;0.5058182;350
4096;448.7;0.0198;0.00482;0.000151;0.5058182;350
4098;448.7;0.0198;0.00481;0.000150;0.5034545;350
4100;448.6;0.0198;0.00482;0.000151;0.5034545;350
4102;448.6;0.0198;0.00481;0.000150;0.5081818;350
4104;448.7;0.0198;0.00481;0.000150;0.5105455;350
4106;448.7;0.0198;0.00481;0.000150;0.5105455;350
4108;448.8;0.0198;0.00481;0.000150;0.5105455;350
4110;448.8;0.0198;0.00481;0.000150;0.5105455;350
4112;448.8;0.0198;0.00481;0.000150;0.5081818;350
4114;448.7;0.0198;0.00481;0.000150;0.5058182;350
4116;448.7;0.0198;0.00481;0.000150;0.5058182;350
4118;448.6;0.0198;0.00481;0.000150;0.5010909;350
4120;448.4;0.0198;0.00481;0.000150;0.5058182;350
4122;448.5;0.0198;0.00481;0.000150;0.5081818;350
4124;448.6;0.0198;0.00481;0.000150;0.5081818;350
4126;448.6;0.0198;0.00481;0.000150;0.5058182;350
4128;448.7;0.0198;0.00481;0.000150;0.5081818;350
4130;448.7;0.0198;0.00481;0.000150;0.5058182;350
4132;448.6;0.0198;0.0048;0.000150;0.5034545;350
4134;448.6;0.0198;0.00481;0.000150;0.5058182;350
4136;448.5;0.0198;0.00481;0.000150;0.5034545;329
4138;448.5;0.0198;0.00481;0.000150;0.5034545;308
4140;448.5;0.0198;0.00481;0.000150;0.5010909;273
4142;448.5;0.0198;0.00481;0.000150;0.5034545;259
4144;448.5;0.0198;0.00481;0.000150;0.5058182;238
4146;448.5;0.0198;0.00481;0.000150;0.5058182;217
4148;448.6;0.0198;0.00481;0.000150;0.5081818;238
4150;448.7;0.0198;0.00481;0.000150;0.5058182;273
4152;448.6;0.0198;0.00481;0.000150;0.5058182;294
4154;448.7;0.0198;0.00482;0.000151;0.5034545;308
4156;448.5;0.0198;0.00481;0.000150;0.5034545;350
4158;448.6;0.0198;0.00482;0.000151;0.5010909;350
4160;448.5;0.0198;0.00482;0.000151;0.5010909;350
4162;448.5;0.0198;0.00481;0.000150;0.5034545;350
4164;448.5;0.0198;0.00481;0.000150;0.5058182;350
4166;448.5;0.0198;0.00481;0.000150;0.5058182;350
4168;448.6;0.0198;0.00481;0.000150;0.5034545;350
4170;448.7;0.0198;0.00481;0.000150;0.5058182;350
4172;448.7;0.0198;0.00482;0.000151;0.5034545;350
4174;448.7;0.0198;0.00481;0.000150;0.5034545;350
4176;448.6;0.0198;0.00482;0.000151;0.5010909;350
4178;448.5;0.0198;0.00481;0.000150;0.5010909;350
4180;448.5;0.0198;0.00481;0.000150;0.5010909;350
4182;448.5;0.0198;0.00481;0.000150;0.5010909;350
4184;448.5;0.0198;0.00481;0.000150;0.5010909;350
4186;448.5;0.0198;0.00481;0.000150;0.5010909;350
4188;448.5;0.0198;0.00482;0.000151;0.5034545;350
4190;448.6;0.0198;0.00482;0.000151;0.5034545;350
4192;448.7;0.0198;0.00482;0.000151;0.5058182;350
4194;448.7;0.0198;0.00481;0.000150;0.5058182;350
4196;448.7;0.0198;0.00481;0.000150;0.5058182;350
4198;448.7;0.0198;0.00481;0.000150;0.5034545;350
4200;448.7;0.0198;0.00481;0.000150;0.5010909;350
4202;448.7;0.0198;0.00481;0.000150;0.5010909;350
4204;448.5;0.0198;0.00482;0.000151;0.4987273;350
4206;448.5;0.0198;0.00482;0.000151;0.5010909;350
4208;448.5;0.0198;0.00481;0.000150;0.5034545;350
4210;448.6;0.0198;0.00482;0.000151;0.5034545;350
4212;448.6;0.0198;0.00481;0.000150;0.5034545;350
4214;448.7;0.0198;0.00482;0.000151;0.5034545;350
4216;448.7;0.0198;0.00481;0.000150;0.5010909;350
4218;448.6;0.0198;0.00481;0.000150;0.4987273;350
4220;448.6;0.0198;0.00482;0.000151;0.5010909;350
4222;448.6;0.0198;0.00481;0.000150;0.4987273;350
4224;448.6;0.0198;0.00482;0.000151;0.5034545;350
4226;448.6;0.0198;0.00481;0.000150;0.5034545;350
4228;448.7;0.0198;0.00481;0.000150;0.5034545;350
4230;448.6;0.0198;0.00482;0.000151;0.4987273;350
4232;448.6;0.0198;0.00481;0.000150;0.4987273;350
4234;448.5;0.0198;0.00481;0.000150;0.4987273;350
4236;448.6;0.0198;0.00482;0.000151;0.5010909;350
4238;448.5;0.0198;0.00481;0.000150;0.5034545;350
4240;448.7;0.0198;0.00482;0.000151;0.5010909;350
4242;448.6;0.0198;0.00481;0.000150;0.5010909;350
4244;448.6;0.0198;0.00482;0.000151;0.4987273;350
4246;448.7;0.0198;0.00481;0.000150;0.4987273;350
4248;448.7;0.0198;0.00482;0.000151;0.4987273;350
4250;448.6;0.0198;0.00481;0.000150;0.5058182;350
4252;448.7;0.0198;0.00481;0.000150;0.5058182;350
4254;448.8;0.0198;0.00482;0.000151;0.5034545;350
4256;448.7;0.0198;0.00481;0.000150;0.5034545;350
4258;448.8;0.0198;0.00482;0.000151;0.4987273;350
4260;448.7;0.0198;0.00481;0.000150;0.4987273;350
4262;448.7;0.0198;0.00482;0.000151;0.4987273;350
4264;448.6;0.0198;0.00481;0.000150;0.4987273;350
4266;448.5;0.0198;0.00481;0.000150;0.5010909;350
4268;448.6;0.0198;0.00481;0.000150;0.4987273;350
4270;448.6;0.0198;0.00481;0.000150;0.5010909;350
4272;448.6;0.0198;0.00481;0.000150;0.4987273;350
4274;448.6;0.0198;0.00481;0.000150;0.5010909;350
4276;448.5;0.0198;0.00481;0.000150;0.4963636;350
4278;448.6;0.0198;0.00481;0.000150;0.4963636;350
4280;448.6;0.0198;0.00481;0.000150;0.4963636;350
4282;448.4;0.0198;0.00481;0.000150;0.4963636;350
4284;448.6;0.0198;0.00481;0.000150;0.4987273;350
4286;448.5;0.0198;0.00481;0.000150;0.5010909;350
4288;448.6;0.0198;0.00481;0.000150;0.5034545;350
4290;448.7;0.0198;0.00481;0.000150;0.5010909;350
4292;448.8;0.0198;0.00481;0.000150;0.5010909;350
4294;448.8;0.0198;0.00481;0.000150;0.4987273;350
4296;448.7;0.0198;0.00482;0.000151;0.4963636;350
4298;448.6;0.0198;0.00482;0.000151;0.494;350
4300;448.5;0.0198;0.00482;0.000151;0.4963636;350
4302;448.4;0.0198;0.00481;0.000150;0.4987273;350
4304;448.5;0.0198;0.00482;0.000151;0.4987273;350
4306;448.6;0.0198;0.00481;0.000150;0.4987273;350
4308;448.6;0.0198;0.00481;0.000150;0.4963636;350
4310;448.6;0.0198;0.00481;0.000150;0.4963636;350
4312;448.7;0.0198;0.00481;0.000150;0.4963636;350
4314;448.5;0.0198;0.00481;0.000150;0.494;350
4316;448.4;0.0198;0.00481;0.000150;0.4963636;350
4318;448.4;0.0198;0.00481;0.000150;0.494;350
4320;448.5;0.0198;0.00481;0.000150;0.4987273;350
4322;448.5;0.0198;0.00481;0.000150;0.4987273;350
4324;448.6;0.0198;0.00481;0.000150;0.5010909;350
4326;448.6;0.0198;0.00481;0.000150;0.4987273;350
4328;448.6;0.0198;0.00481;0.000150;0.4987273;350
4330;448.6;0.0198;0.00481;0.000150;0.4987273;350
4332;448.6;0.0198;0.00481;0.000150;0.4963636;350
4334;448.6;0.0198;0.00481;0.000150;0.4963636;350
4336;448.5;0.0198;0.0048;0.000150;0.494;350
4338;448.4;0.0198;0.00481;0.000150;0.494;350
4340;448.4;0.0198;0.00481;0.000150;0.4916364;350
4342;448.4;0.0198;0.00481;0.000150;0.494;350
4344;448.4;0.0198;0.0048;0.000150;0.4963636;350
4346;448.4;0.0198;0.00481;0.000150;0.4987273;350
4348;448.5;0.0198;0.00481;0.000150;0.5010909;350
4350;448.6;0.0198;0.0048;0.000150;0.4987273;350
4352;448.6;0.0198;0.0048;0.000150;0.4987273;350
4354;448.6;0.0198;0.00481;0.000150;0.494;350
4356;448.6;0.0198;0.0048;0.000150;0.4963636;350
4358;448.5;0.0198;0.00481;0.000150;0.4916364;350
4360;448.5;0.0198;0.00481;0.000150;0.494;350
4362;448.4;0.0198;0.0048;0.000150;0.4963636;350
4364;448.4;0.0198;0.00481;0.000150;0.4963636;350
4366;448.4;0.0198;0.0048;0.000150;0.4987273;350
4368;448.5;0.0198;0.00481;0.000150;0.4963636;350
4370;448.5;0.0198;0.0048;0.000150;0.4963636;350
4372;448.5;0.0198;0.00481;0.000150;0.494;343
4374;448.5;0.0198;0.0048;0.000150;0.494;315
4376;448.4;0.0198;0.00481;0.000150;0.4916364;273
4378;448.3;0.0198;0.0048;0.000150;0.4916364;273
4380;448.3;0.0198;0.0048;0.000150;0.494;238
4382;448.4;0.0198;0.00481;0.000150;0.4963636;210
4384;448.4;0.0198;0.0048;0.000150;0.4963636;238
4386;448.4;0.0198;0.0048;0.000150;0.494;238
4388;448.5;0.0198;0.0048;0.000150;0.4963636;238
4390;448.4;0.0198;0.0048;0.000150;0.4916364;273
4392;448.4;0.0198;0.0048;0.000150;0.4916364;308
4394;448.3;0.0198;0.0048;0.000150;0.4892727;315
4396;448.3;0.0198;0.0048;0.000150;0.4916364;350
4398;448.3;0.0198;0.00481;0.000150;0.4963636;350
4400;448.4;0.0198;0.0048;0.000150;0.494;350
4402;448.4;0.0198;0.0048;0.000150;0.494;350
4404;448.4;0.0198;0.0048;0.000150;0.4916364;350
4406;448.4;0.0198;0.00481;0.000150;0.4916364;350
4408;448.4;0.0198;0.0048;0.000150;0.4916364;350
4410;448.4;0.0198;0.00481;0.000150;0.4892727;350
4412;448.4;0.0198;0.0048;0.000150;0.494;350
4414;448.4;0.0198;0.0048;0.000150;0.494;350
4416;448.4;0.0198;0.0048;0.000150;0.494;350
4418;448.5;0.0198;0.0048;0.000150;0.494;350
4420;448.5;0.0198;0.00481;0.000150;0.494;350
4422;448.5;0.0198;0.00481;0.000150;0.4916364;350
4424;448.5;0.0198;0.00481;0.000150;0.4916364;350
4426;448.4;0.0198;0.0048;0.000150;0.4892727;350
4428;448.4;0.0198;0.00481;0.000150;0.4892727;350
4430;448.4;0.0198;0.0048;0.000150;0.4892727;350
4432;448.4;0.0198;0.00481;0.000150;0.4892727;350
4434;448.4;0.0198;0.0048;0.000150;0.4916364;350
4436;448.4;0.0198;0.00481;0.000150;0.4916364;350
4438;448.5;0.0198;0.00481;0.000150;0.494;350
4440;448.6;0.0198;0.0048;0.000150;0.494;350
4442;448.6;0.0198;0.0048;0.000150;0.494;350
4444;448.6;0.0198;0.00481;0.000150;0.4916364;350
4446;448.6;0.0198;0.00481;0.000150;0.4892727;350
4448;448.5;0.0198;0.00481;0.000150;0.4892727;350
4450;448.4;0.0198;0.00481;0.000150;0.4869091;350
4452;448.4;0.0198;0.0048;0.000150;0.4916364;350
4454;448.4;0.0198;0.00481;0.000150;0.4916364;350
4456;448.5;0.0198;0.0048;0.000150;0.494;350
4458;448.6;0.0198;0.00481;0.000150;0.4916364;350
4460;448.6;0.0198;0.0048;0.000150;0.4916364;350
4462;448.6;0.0198;0.00481;0.000150;0.4916364;350
4464;448.6;0.0198;0.00481;0.000150;0.4892727;350
4466;448.6;0.0198;0.00481;0.000150;0.4892727;350
4468;448.5;0.0198;0.00481;0.000150;0.4869091;350
4470;448.4;0.0198;0.00481;0.000150;0.4892727;350
4472;448.4;0.0198;0.00481;0.000150;0.4869091;350
4474;448.4;0.0198;0.0048;0.000150;0.4869091;350
4476;448.4;0.0198;0.00481;0.000150;0.4892727;350
4478;448.4;0.0198;0.00481;0.000150;0.4892727;350
4480;448.4;0.0198;0.00481;0.000150;0.4916364;350
4482;448.6;0.0198;0.00481;0.000150;0.4916364;350
4484;448.6;0.0198;0.00481;0.000150;0.494;350
4486;448.6;0.0198;0.00481;0.000150;0.4916364;350
4488;448.6;0.0198;0.00481;0.000150;0.4916364;350
4490;448.6;0.0198;0.00481;0.000150;0.4892727;350
4492;448.6;0.0198;0.00481;0.000150;0.4869091;350
4494;448.5;0.0198;0.00481;0.000150;0.4869091;350
4496;448.4;0.0198;0.00481;0.000150;0.4869091;350
4498;448.4;0.0198;0.00481;0.000150;0.4892727;350
4500;448.4;0.0198;0.00481;0.000150;0.4892727;350
4502;448.5;0.0198;0.00481;0.000150;0.4916364;350
4504;448.6;0.0198;0.00481;0.000150;0.4892727;350
4506;448.6;0.0198;0.00481;0.000150;0.4892727;350
4508;448.5;0.0198;0.0048;0.000150;0.4892727;350
4510;448.5;0.0198;0.00481;0.000150;0.4869091;350
4512;448.4;0.0198;0.00481;0.000150;0.4869091;350
4514;448.4;0.0198;0.00481;0.000150;0.4845455;350
4516;448.4;0.0198;0.00481;0.000150;0.4869091;350
4518;448.4;0.0198;0.00481;0.000150;0.4869091;350
4520;448.4;0.0198;0.00481;0.000150;0.4869091;350
4522;448.4;0.0198;0.00481;0.000150;0.4869091;350
4524;448.4;0.0198;0.00481;0.000150;0.4892727;350
4526;448.4;0.0198;0.00481;0.000150;0.4869091;350
4528;448.4;0.0198;0.0048;0.000150;0.4869091;350
4530;448.4;0.0198;0.00481;0.000150;0.4892727;350
4532;448.4;0.0198;0.00481;0.000150;0.4869091;350
4534;448.4;0.0198;0.00481;0.000150;0.4869091;350
4536;448.4;0.0198;0.00481;0.000150;0.4845455;350
4538;448.4;0.0198;0.00481;0.000150;0.4845455;350
4540;448.3;0.0198;0.00481;0.000150;0.4821818;350
4542;448.3;0.0198;0.00481;0.000150;0.4821818;350
4544;448.3;0.0198;0.00481;0.000150;0.4845455;350
4546;448.3;0.0198;0.00481;0.000150;0.4845455;350
4548;448.3;0.0198;0.00481;0.000150;0.4869091;350
4550;448.3;0.0198;0.00481;0.000150;0.4869091;350
4552;448.4;0.0198;0.00481;0.000150;0.4892727;350
4554;448.4;0.0198;0.00481;0.000150;0.4869091;350
4556;448.5;0.0198;0.00481;0.000150;0.4869091;350
4558;448.4;0.0198;0.00481;0.000150;0.4845455;350
4560;448.4;0.0198;0.00481;0.000150;0.4845455;350
4562;448.4;0.0198;0.00481;0.000150;0.4845455;350
4564;448.3;0.0198;0.00481;0.000150;0.4821818;350
4566;448.3;0.0198;0.0048;0.000150;0.4821818;350
4568;448.2;0.0198;0.00481;0.000150;0.4821818;350
4570;448.2;0.0198;0.0048;0.000150;0.4845455;350
4572;448.2;0.0198;0.00481;0.000150;0.4845455;350
4574;448.3;0.0198;0.00481;0.000150;0.4869091;350
4576;448.3;0.0198;0.00481;0.000150;0.4869091;350
4578;448.3;0.0198;0.00481;0.000150;0.4869091;350
4580;448.4;0.0198;0.00481;0.000150;0.4869091;350
4582;448.4;0.0198;0.00481;0.000150;0.4845455;350
4584;448.3;0.0198;0.0048;0.000150;0.4845455;350
4586;448.3;0.0198;0.00481;0.000150;0.4798182;350
4588;448.2;0.0198;0.0048;0.000150;0.4798182;350
4590;448.1;0.0198;0.00481;0.000150;0.4798182;350
4592;448.1;0.0198;0.0048;0.000150;0.4821818;350
4594;448.2;0.0198;0.00481;0.000150;0.4845455;350
4596;448.2;0.0198;0.0048;0.000150;0.4845455;350
4598;448.3;0.0198;0.0048;0.000150;0.4845455;350
4600;448.3;0.0198;0.0048;0.000150;0.4821818;350
4602;448.3;0.0198;0.00481;0.000150;0.4821818;350
4604;448.3;0.0198;0.0048;0.000150;0.4821818;350
4606;448.2;0.0198;0.00481;0.000150;0.4798182;350
4608;448.2;0.0198;0.0048;0.000150;0.4798182;350
4610;448.2;0.0198;0.0048;0.000150;0.4798182;350
4612;448.2;0.0198;0.0048;0.000150;0.4821818;350
4614;448.2;0.0198;0.0048;0.000150;0.4821818;350
4616;448.2;0.0198;0.0048;0.000150;0.4845455;350
4618;448.3;0.0198;0.0048;0.000150;0.4821818;350
4620;448.4;0.0198;0.0048;0.000150;0.4845455;350
4622;448.4;0.0198;0.00481;0.000150;0.4845455;350
4624;448.4;0.0198;0.0048;0.000150;0.4821818;350
4626;448.4;0.0198;0.0048;0.000150;0.4821818;350
4628;448.3;0.0198;0.0048;0.000150;0.4798182;350
4630;448.3;0.0198;0.0048;0.000150;0.4798182;350
4632;448.3;0.0198;0.0048;0.000150;0.4798182;350
4634;448.2;0.0198;0.0048;0.000150;0.4821818;350
4636;448.3;0.0198;0.0048;0.000150;0.4821818;350
4638;448.3;0.0198;0.0048;0.000150;0.4845455;350
4640;448.4;0.0198;0.00481;0.000150;0.4821818;350
4642;448.4;0.0198;0.0048;0.000150;0.4821818;350
4644;448.4;0.0198;0.0048;0.000150;0.4798182;350
4646;448.4;0.0198;0.0048;0.000150;0.4798182;350
4648;448.4;0.0198;0.0048;0.000150;0.4798182;350
4650;448.3;0.0198;0.0048;0.000150;0.4774545;350
4652;448.3;0.0198;0.0048;0.000150;0.4774545;315
4654;448.3;0.0198;0.00481;0.000150;0.4798182;301
4656;448.4;0.0198;0.0048;0.000150;0.4821818;294
4658;448.4;0.0198;0.00481;0.000150;0.4821818;259
4660;448.5;0.0198;0.0048;0.000150;0.4821818;259
4662;448.6;0.0198;0.0048;0.000150;0.4821818;294
4664;448.6;0.0198;0.0048;0.000150;0.4798182;308
4666;448.6;0.0198;0.0048;0.000150;0.4821818;315
4668;448.6;0.0198;0.0048;0.000150;0.4798182;350
4670;448.6;0.0198;0.0048;0.000150;0.4798182;350
4672;448.5;0.0198;0.0048;0.000150;0.4774545;350
4674;448.6;0.0198;0.0048;0.000150;0.4821818;350
4676;448.6;0.0198;0.0048;0.000150;0.4845455;350
4678;448.7;0.0198;0.0048;0.000150;0.4821818;350
4680;448.7;0.0198;0.0048;0.000150;0.4821818;350
4682;448.7;0.0198;0.0048;0.000150;0.4798182;350
4684;448.7;0.0198;0.0048;0.000150;0.4798182;350
4686;448.7;0.0198;0.0048;0.000150;0.4774545;350
4688;448.6;0.0198;0.0048;0.000150;0.4798182;350
4690;448.7;0.0198;0.0048;0.000150;0.4821818;350
4692;448.7;0.0198;0.0048;0.000150;0.4821818;350
4694;448.7;0.0198;0.0048;0.000150;0.4821818;350
4696;448.8;0.0198;0.0048;0.000150;0.4798182;350
4698;448.8;0.0198;0.0048;0.000150;0.4798182;350
4700;448.8;0.0198;0.0048;0.000150;0.4774545;350
4702;448.7;0.0198;0.0048;0.000150;0.4798182;350
4704;448.8;0.0198;0.0048;0.000150;0.4798182;350
4706;448.7;0.0198;0.0048;0.000150;0.4798182;350
4708;448.7;0.0198;0.0048;0.000150;0.4798182;350
4710;448.8;0.0198;0.0048;0.000150;0.4821818;350
4712;448.8;0.0198;0.0048;0.000150;0.4821818;350
4714;448.9;0.0198;0.00481;0.000150;0.4845455;350
4716;448.9;0.0198;0.0048;0.000150;0.4821818;350
4718;448.9;0.0198;0.0048;0.000150;0.4798182;350
4720;449;0.0198;0.0048;0.000150;0.4798182;350
4722;448.9;0.0198;0.0048;0.000150;0.4774545;350
4724;448.8;0.0198;0.0048;0.000150;0.4774545;350
4726;448.8;0.0198;0.00481;0.000150;0.4798182;350
4728;448.9;0.0198;0.0048;0.000150;0.4798182;350
4730;449;0.0198;0.0048;0.000150;0.4845455;350
4732;449;0.0198;0.0048;0.000150;0.4821818;350
4734;449;0.0198;0.0048;0.000150;0.4821818;350
4736;449;0.0198;0.0048;0.000150;0.4798182;350
4738;449;0.0198;0.0048;0.000150;0.4798182;350
4740;449;0.0198;0.0048;0.000150;0.4798182;350
4742;449;0.0198;0.0048;0.000150;0.4774545;350
4744;449;0.0198;0.0048;0.000150;0.4774545;350
4746;449;0.0198;0.0048;0.000150;0.4774545;350
4748;449;0.0198;0.0048;0.000150;0.4798182;350
4750;449;0.0198;0.00479;0.000150;0.4798182;350
4752;449.1;0.0198;0.0048;0.000150;0.4845455;350
4754;449.1;0.0198;0.0048;0.000150;0.4821818;350
4756;449.2;0.0198;0.0048;0.000150;0.4821818;350
4758;449.3;0.0198;0.0048;0.000150;0.4798182;350
4760;449.2;0.0198;0.0048;0.000150;0.4774545;350
4762;449.1;0.0198;0.00479;0.000150;0.4774545;350
4764;449.1;0.0198;0.0048;0.000150;0.4774545;350
4766;449.1;0.0198;0.00479;0.000150;0.4821818;350
4768;449.2;0.0198;0.0048;0.000150;0.4821818;350
4770;449.2;0.0198;0.0048;0.000150;0.4821818;350
4772;449.2;0.0198;0.0048;0.000150;0.4798182;350
4774;449.2;0.0198;0.0048;0.000150;0.4798182;350
4776;449.2;0.0198;0.00479;0.000150;0.4798182;350
4778;449.2;0.0198;0.0048;0.000150;0.4774545;350
4780;449.2;0.0198;0.00479;0.000150;0.4798182;350
4782;449.1;0.0198;0.0048;0.000150;0.4750909;350
4784;449.1;0.0198;0.00479;0.000150;0.4798182;350
4786;449.1;0.0198;0.0048;0.000150;0.4821818;350
4788;449.2;0.0198;0.00479;0.000150;0.4821818;350
4790;449.3;0.0198;0.0048;0.000150;0.4798182;350
4792;449.3;0.0198;0.00479;0.000150;0.4774545;350
4794;449.4;0.0198;0.0048;0.000150;0.4798182;350
4796;449.2;0.0198;0.00479;0.000150;0.4774545;350
4798;449.2;0.0198;0.00479;0.000150;0.4774545;350
4800;449.2;0.0198;0.00479;0.000150;0.4774545;350
4802;449.3;0.0198;0.0048;0.000150;0.4798182;350
4804;449.2;0.0198;0.00479;0.000150;0.4821818;350
4806;449.2;0.0198;0.00479;0.000150;0.4798182;350
4808;449.3;0.0198;0.00479;0.000150;0.4798182;350
4810;449.3;0.0198;0.00479;0.000150;0.4774545;350
4812;449.4;0.0198;0.00479;0.000150;0.4798182;350
4814;449.3;0.0198;0.00479;0.000150;0.4750909;350
4816;449.2;0.0198;0.0048;0.000150;0.4774545;350
4818;449.2;0.0198;0.0048;0.000150;0.4750909;350
4820;449.2;0.0198;0.0048;0.000150;0.4798182;350
4822;449.2;0.0198;0.0048;0.000150;0.4798182;350
4824;449.3;0.0198;0.0048;0.000150;0.4798182;350
4826;449.3;0.0198;0.00479;0.000150;0.4798182;350
4828;449.3;0.0198;0.0048;0.000150;0.4798182;350
4830;449.3;0.0198;0.00479;0.000150;0.4798182;350
4832;449.4;0.0198;0.0048;0.000150;0.4798182;350
4834;449.4;0.0198;0.00479;0.000150;0.4798182;350
4836;449.4;0.0198;0.0048;0.000150;0.4845455;350
4838;449.4;0.0198;0.00479;0.000150;0.4821818;350
4840;449.4;0.0198;0.0048;0.000150;0.4774545;350
4842;449.4;0.0198;0.00479;0.000150;0.4750909;350
4844;449.3;0.0198;0.00479;0.000150;0.4750909;350
4846;449.2;0.0198;0.00479;0.000150;0.4774545;350
4848;449.3;0.0198;0.00479;0.000150;0.4821818;350
4850;449.3;0.0198;0.0048;0.000150;0.4798182;350
4852;449.4;0.0198;0.00479;0.000150;0.4821818;350
4854;449.4;0.0198;0.00479;0.000150;0.4798182;350
4856;449.4;0.0198;0.00479;0.000150;0.4774545;350
4858;449.4;0.0198;0.0048;0.000150;0.4774545;350
4860;449.5;0.0198;0.00479;0.000150;0.4774545;350
4862;449.4;0.0198;0.0048;0.000150;0.4774545;350
4864;449.4;0.0198;0.00479;0.000150;0.4750909;350
4866;449.2;0.0198;0.00479;0.000150;0.4750909;350
4868;449.2;0.0198;0.00479;0.000150;0.4750909;350
4870;449.2;0.0198;0.0048;0.000150;0.4774545;350
4872;449.3;0.0198;0.0048;0.000150;0.4798182;350
4874;449.3;0.0198;0.00479;0.000150;0.4774545;350
4876;449.4;0.0198;0.00479;0.000150;0.4798182;350
4878;449.4;0.0198;0.0048;0.000150;0.4774545;350
4880;449.4;0.0198;0.00479;0.000150;0.4774545;350
4882;449.4;0.0198;0.00479;0.000150;0.4750909;350
4884;449.4;0.0198;0.0048;0.000150;0.4750909;350
4886;449.3;0.0198;0.0048;0.000150;0.4750909;350
4888;449.3;0.0198;0.0048;0.000150;0.4774545;315
4890;449.4;0.0198;0.00479;0.000150;0.4798182;294
4892;449.4;0.0198;0.0048;0.000150;0.4774545;280
4894;449.5;0.0198;0.00479;0.000150;0.4798182;280
4896;449.5;0.0198;0.0048;0.000150;0.4774545;280
4898;449.5;0.0198;0.00479;0.000150;0.4774545;315
4900;449.5;0.0198;0.0048;0.000150;0.4750909;343
4902;449.5;0.0198;0.00479;0.000150;0.4750909;350
4904;449.4;0.0198;0.00479;0.000150;0.4750909;350
4906;449.4;0.0198;0.00479;0.000150;0.4774545;350
4908;449.4;0.0198;0.00479;0.000150;0.4798182;350
4910;449.5;0.0198;0.0048;0.000150;0.4798182;350
4912;449.6;0.0198;0.0048;0.000150;0.4798182;350
4914;449.6;0.0198;0.0048;0.000150;0.4750909;350
4916;449.5;0.0198;0.00479;0.000150;0.4750909;350
4918;449.5;0.0198;0.0048;0.000150;0.4727273;350
4920;449.5;0.0198;0.0048;0.000150;0.4774545;350
4922;449.5;0.0198;0.0048;0.000150;0.4774545;350
4924;449.5;0.0198;0.00479;0.000150;0.4750909;350
4926;449.5;0.0198;0.00479;0.000150;0.4774545;350
4928;449.6;0.0198;0.0048;0.000150;0.4750909;350
4930;449.6;0.0198;0.0048;0.000150;0.4774545;350
4932;449.6;0.0198;0.0048;0.000150;0.4774545;350
4934;449.6;0.0198;0.0048;0.000150;0.4798182;350
4936;449.6;0.0198;0.0048;0.000150;0.4774545;350
4938;449.7;0.0198;0.0048;0.000150;0.4750909;350
4940;449.7;0.0198;0.0048;0.000150;0.4774545;350
4942;449.6;0.0198;0.0048;0.000150;0.4727273;350
4944;449.6;0.0198;0.0048;0.000150;0.4750909;350
4946;449.6;0.0198;0.00481;0.000150;0.4774545;350
4948;449.6;0.0198;0.0048;0.000150;0.4798182;350
4950;449.7;0.0198;0.0048;0.000150;0.4798182;350
4952;449.7;0.0198;0.00481;0.000150;0.4774545;350
4954;449.8;0.0198;0.00481;0.000150;0.4774545;350
4956;449.8;0.0198;0.00481;0.000150;0.4774545;350
4958;449.7;0.0198;0.0048;0.000150;0.4750909;350
4960;449.7;0.0198;0.00481;0.000150;0.4727273;350
4962;449.7;0.0198;0.0048;0.000150;0.4750909;350
4964;449.7;0.0198;0.0048;0.000150;0.4727273;350
4966;449.6;0.0198;0.0048;0.000150;0.4750909;350
4968;449.7;0.0198;0.00481;0.000150;0.4774545;350
4970;449.7;0.0198;0.00481;0.000150;0.4774545;350
4972;449.8;0.0198;0.0048;0.000150;0.4798182;350
4974;449.8;0.0198;0.00481;0.000150;0.4774545;350
4976;449.8;0.0198;0.0048;0.000150;0.4774545;350
4978;449.8;0.0198;0.0048;0.000150;0.4750909;350
4980;449.8;0.0198;0.0048;0.000150;0.4750909;350
4982;449.8;0.0198;0.00481;0.000150;0.4750909;350
4984;449.7;0.0198;0.00481;0.000150;0.4750909;350
4986;449.8;0.0198;0.00481;0.000150;0.4798182;350
4988;449.8;0.0198;0.00481;0.000150;0.4798182;350
4990;449.8;0.0198;0.00481;0.000150;0.4798182;350
4992;449.9;0.0198;0.00481;0.000150;0.4774545;350
4994;449.9;0.0198;0.0048;0.000150;0.4750909;350
4996;449.8;0.0198;0.00481;0.000150;0.4727273;350
4998;449.8;0.0198;0.00481;0.000150;0.4750909;350
5000;449.7;0.0198;0.00481;0.000150;0.4750909;350
5002;449.8;0.0198;0.00481;0.000150;0.4774545;350
5004;449.8;0.0198;0.00481;0.000150;0.4774545;350
5006;449.8;0.0198;0.00481;0.000150;0.4750909;350
5008;449.8;0.0198;0.00481;0.000150;0.4750909;350
5010;449.8;0.0198;0.00481;0.000150;0.4727273;350
5012;449.7;0.0198;0.00481;0.000150;0.4727273;350
5014;449.7;0.0198;0.0048;0.000150;0.4727273;350
5016;449.7;0.0198;0.00481;0.000150;0.4750909;350
5018;449.7;0.0198;0.00481;0.000150;0.4774545;350
5020;449.7;0.0198;0.0048;0.000150;0.4774545;350
5022;449.8;0.0198;0.00481;0.000150;0.4774545;350
5024;449.8;0.0198;0.00481;0.000150;0.4750909;350
5026;449.8;0.0198;0.0048;0.000150;0.4750909;350
5028;449.8;0.0198;0.00481;0.000150;0.4727273;350
5030;449.7;0.0198;0.00481;0.000150;0.4727273;350
5032;449.7;0.0198;0.00481;0.000150;0.4727273;350
5034;449.7;0.0198;0.0048;0.000150;0.4774545;350
5036;449.7;0.0198;0.00481;0.000150;0.4774545;350
5038;449.8;0.0198;0.0048;0.000150;0.4774545;350
5040;449.8;0.0198;0.0048;0.000150;0.4750909;350
5042;449.8;0.0198;0.00481;0.000150;0.4727273;350
5044;449.7;0.0198;0.0048;0.000150;0.4727273;350
5046;449.7;0.0198;0.00481;0.000150;0.4703636;350
5048;449.7;0.0198;0.0048;0.000150;0.4750909;350
5050;449.7;0.0198;0.00481;0.000150;0.4750909;350
5052;449.7;0.0198;0.0048;0.000150;0.4750909;350
5054;449.8;0.0198;0.0048;0.000150;0.4750909;350
5056;449.8;0.0198;0.0048;0.000150;0.4750909;350
5058;449.8;0.0198;0.0048;0.000150;0.4750909;350
5060;449.8;0.0198;0.0048;0.000150;0.4750909;350
5062;449.8;0.0198;0.0048;0.000150;0.4750909;350
5064;449.8;0.0198;0.0048;0.000150;0.4727273;350
5066;449.8;0.0198;0.00481;0.000150;0.4727273;350
5068;449.7;0.0198;0.0048;0.000150;0.4727273;350
5070;449.7;0.0198;0.0048;0.000150;0.4727273;350
5072;449.7;0.0198;0.0048;0.000150;0.4750909;350
5074;449.8;0.0198;0.0048;0.000150;0.4750909;350
5076;449.8;0.0198;0.0048;0.000150;0.4774545;350
5078;449.9;0.0198;0.0048;0.000150;0.4750909;350
5080;449.9;0.0198;0.0048;0.000150;0.4774545;350
5082;449.9;0.0198;0.0048;0.000150;0.4750909;350
5084;449.9;0.0198;0.0048;0.000150;0.4750909;350
5086;449.9;0.0198;0.0048;0.000150;0.4727273;350
5088;449.8;0.0198;0.00481;0.000150;0.4703636;350
5090;449.8;0.0198;0.0048;0.000150;0.4727273;350
5092;449.7;0.0198;0.0048;0.000150;0.4703636;350
5094;449.7;0.0198;0.0048;0.000150;0.4750909;350
5096;449.8;0.0198;0.0048;0.000150;0.4750909;350
5098;449.9;0.0198;0.0048;0.000150;0.4774545;350
5100;449.9;0.0198;0.00481;0.000150;0.4750909;350
5102;449.9;0.0198;0.0048;0.000150;0.4727273;350
5104;449.9;0.0198;0.0048;0.000150;0.4727273;350
5106;449.9;0.0198;0.00481;0.000150;0.4703636;350
5108;449.9;0.0198;0.0048;0.000150;0.4727273;350
5110;449.8;0.0198;0.0048;0.000150;0.4703636;350
5112;449.8;0.0198;0.0048;0.000150;0.4727273;350
5114;449.8;0.0198;0.0048;0.000150;0.4750909;350
5116;449.9;0.0198;0.0048;0.000150;0.4774545;350
5118;449.9;0.0198;0.0048;0.000150;0.4750909;350
5120;450;0.0198;0.0048;0.000150;0.4750909;350
5122;450;0.0198;0.00479;0.000150;0.4750909;350
5124;450;0.0198;0.0048;0.000150;0.4703636;350
5126;449.9;0.0198;0.00479;0.000150;0.4703636;350
5128;449.9;0.0198;0.0048;0.000150;0.4727273;350
5130;449.9;0.0198;0.0048;0.000150;0.4750909;350
5132;449.9;0.0198;0.0048;0.000150;0.4750909;350
5134;450;0.0198;0.0048;0.000150;0.4750909;350
5136;450;0.0198;0.00481;0.000150;0.4750909;350
5138;450;0.0198;0.0048;0.000150;0.4727273;350
5140;450;0.0198;0.0048;0.000150;0.4727273;350
5142;450;0.0198;0.0048;0.000150;0.4727273;350
5144;450.1;0.0198;0.0048;0.000150;0.4727273;350
5146;449.9;0.0198;0.0048;0.000150;0.4703636;350
5148;450.1;0.0198;0.0048;0.000150;0.4703636;350
5150;449.9;0.0198;0.0048;0.000150;0.4727273;329
5152;450;0.0198;0.0048;0.000150;0.4750909;315
5154;450;0.0198;0.0048;0.000150;0.4774545;280
5156;450.1;0.0198;0.0048;0.000150;0.4750909;266
5158;450.1;0.0198;0.0048;0.000150;0.4750909;238
5160;450.1;0.0198;0.0048;0.000150;0.4727273;217
5162;450.1;0.0198;0.0048;0.000150;0.4727273;231
5164;450.1;0.0198;0.0048;0.000150;0.4703636;231
5166;450;0.0198;0.0048;0.000150;0.4703636;217
5168;450;0.0198;0.0048;0.000150;0.4750909;238
5170;450;0.0198;0.0048;0.000150;0.4750909;273
5172;450.1;0.0198;0.0048;0.000150;0.4750909;287
5174;450.1;0.0198;0.00481;0.000150;0.4727273;315
5176;450.1;0.0198;0.0048;0.000150;0.4727273;350
5178;450.1;0.0198;0.0048;0.000150;0.4727273;350
5180;450;0.0198;0.0048;0.000150;0.4703636;350
5182;450;0.0198;0.0048;0.000150;0.4703636;350
5184;450;0.0198;0.0048;0.000150;0.4727273;350
5186;450;0.0198;0.0048;0.000150;0.4727273;350
5188;450.1;0.0198;0.00481;0.000150;0.4727273;350
5190;450.1;0.0198;0.00481;0.000150;0.4727273;350
5192;450.1;0.0198;0.00481;0.000150;0.4703636;350
5194;450;0.0198;0.00481;0.000150;0.4727273;350
5196;450;0.0198;0.0048;0.000150;0.4727273;350
5198;450.1;0.0198;0.0048;0.000150;0.4727273;350
5200;450;0.0198;0.00481;0.000150;0.4727273;350
5202;450.1;0.0198;0.0048;0.000150;0.4703636;350
5204;450.1;0.0198;0.0048;0.000150;0.4703636;350
5206;450.1;0.0198;0.0048;0.000150;0.4703636;350
5208;450.1;0.0198;0.00481;0.000150;0.4727273;350
5210;450.1;0.0198;0.0048;0.000150;0.4727273;350
5212;450;0.0198;0.0048;0.000150;0.4727273;350
5214;450.1;0.0198;0.0048;0.000150;0.4727273;350
5216;450.1;0.0198;0.00481;0.000150;0.4727273;350
5218;450.2;0.0198;0.0048;0.000150;0.4727273;350
5220;450.1;0.0198;0.00481;0.000150;0.4703636;350
5222;450.1;0.0198;0.0048;0.000150;0.4703636;350
5224;450.1;0.0198;0.0048;0.000150;0.468;350
5226;450;0.0198;0.00481;0.000150;0.4703636;350
5228;450;0.0198;0.0048;0.000150;0.4727273;350
5230;450.1;0.0198;0.00481;0.000150;0.4750909;350
5232;450.1;0.0198;0.0048;0.000150;0.4750909;350
5234;450.1;0.0198;0.00481;0.000150;0.4703636;350
5236;450.2;0.0198;0.0048;0.000150;0.4727273;350
5238;450.1;0.0198;0.00481;0.000150;0.468;350
5240;450.1;0.0198;0.0048;0.000150;0.4750909;350
5242;450.2;0.0198;0.0048;0.000150;0.4727273;350
5244;450.1;0.0198;0.00481;0.000150;0.4750909;350
5246;450.2;0.0198;0.00481;0.000150;0.4727273;350
5248;450.2;0.0198;0.0048;0.000150;0.4727273;350
5250;450.2;0.0198;0.0048;0.000150;0.4727273;350
5252;450.2;0.0198;0.00481;0.000150;0.4703636;350
5254;450.1;0.0198;0.00481;0.000150;0.4703636;350
5256;450.1;0.0198;0.00481;0.000150;0.468;350
5258;450;0.0198;0.0048;0.000150;0.4703636;350
5260;450;0.0198;0.00481;0.000150;0.4727273;350
5262;450.1;0.0198;0.0048;0.000150;0.4750909;350
5264;450.3;0.0198;0.00481;0.000150;0.4727273;350
5266;450.2;0.0198;0.0048;0.000150;0.4727273;350
5268;450.2;0.0198;0.00481;0.000150;0.4727273;350
5270;450.2;0.0198;0.0048;0.000150;0.4703636;350
5272;450.2;0.0198;0.00481;0.000150;0.4703636;350
5274;450.1;0.0198;0.00481;0.000150;0.468;350
5276;450.1;0.0198;0.00481;0.000150;0.4727273;350
5278;450.1;0.0198;0.0048;0.000150;0.4727273;350
5280;450.2;0.0198;0.00481;0.000150;0.4727273;350
5282;450.2;0.0198;0.0048;0.000150;0.4703636;350
5284;450.2;0.0198;0.00481;0.000150;0.4703636;350
5286;450.2;0.0198;0.0048;0.000150;0.4703636;350
5288;450.3;0.0198;0.0048;0.000150;0.468;350
5290;450.2;0.0198;0.0048;0.000150;0.4703636;350
5292;450.2;0.0198;0.0048;0.000150;0.4727273;350
5294;450.3;0.0198;0.0048;0.000150;0.4750909;350
5296;450.3;0.0198;0.0048;0.000150;0.4727273;350
5298;450.4;0.0198;0.0048;0.000150;0.4727273;350
5300;450.4;0.0198;0.0048;0.000150;0.4727273;350
5302;450.3;0.0198;0.0048;0.000150;0.468;350
5304;450.3;0.0198;0.0048;0.000150;0.4703636;350
5306;450.3;0.0198;0.0048;0.000150;0.4703636;350
5308;450.3;0.0198;0.0048;0.000150;0.4727273;350
5310;450.3;0.0198;0.0048;0.000150;0.4727273;350
5312;450.4;0.0198;0.0048;0.000150;0.4750909;350
5314;450.4;0.0198;0.0048;0.000150;0.4727273;350
5316;450.5;0.0198;0.0048;0.000150;0.4703636;350
5318;450.4;0.0198;0.0048;0.000150;0.4703636;350
5320;450.4;0.0198;0.0048;0.000150;0.468;350
5322;450.4;0.0198;0.0048;0.000150;0.4703636;350
5324;450.3;0.0198;0.0048;0.000150;0.4703636;350
5326;450.4;0.0198;0.0048;0.000150;0.4750909;350
5328;450.4;0.0198;0.0048;0.000150;0.4750909;350
5330;450.4;0.0198;0.0048;0.000150;0.4750909;350
5332;450.6;0.0198;0.0048;0.000150;0.4727273;350
5334;450.5;0.0198;0.0048;0.000150;0.4703636;350
5336;450.5;0.0198;0.0048;0.000150;0.4703636;350
5338;450.5;0.0198;0.0048;0.000150;0.468;350
5340;450.5;0.0198;0.0048;0.000150;0.4703636;350
5342;450.5;0.0198;0.0048;0.000150;0.4727273;350
5344;450.5;0.0198;0.0048;0.000150;0.4750909;350
5346;450.5;0.0198;0.0048;0.000150;0.4750909;350
5348;450.5;0.0198;0.0048;0.000150;0.4750909;350
5350;450.5;0.0198;0.0048;0.000150;0.4727273;350
5352;450.5;0.0198;0.0048;0.000150;0.4727273;350
5354;450.5;0.0198;0.0048;0.000150;0.4703636;350
5356;450.6;0.0198;0.0048;0.000150;0.4703636;350
5358;450.4;0.0198;0.0048;0.000150;0.4703636;350
5360;450.5;0.0198;0.0048;0.000150;0.468;350
5362;450.4;0.0198;0.0048;0.000150;0.4703636;350
5364;450.4;0.0198;0.0048;0.000150;0.4750909;350
5366;450.4;0.0198;0.0048;0.000150;0.4750909;350
5368;450.6;0.0198;0.0048;0.000150;0.4750909;350
5370;450.5;0.0198;0.0048;0.000150;0.4727273;350
5372;450.6;0.0198;0.0048;0.000150;0.4727273;350
5374;450.5;0.0198;0.0048;0.000150;0.4703636;350
5376;450.6;0.0198;0.0048;0.000150;0.4703636;350
5378;450.4;0.0198;0.0048;0.000150;0.468;350
5380;450.4;0.0198;0.0048;0.000150;0.468;350
5382;450.4;0.0198;0.0048;0.000150;0.4703636;350
5384;450.5;0.0198;0.0048;0.000150;0.4727273;350
5386;450.4;0.0198;0.0048;0.000150;0.4750909;350
5388;450.5;0.0198;0.0048;0.000150;0.4727273;350
5390;450.6;0.0198;0.0048;0.000150;0.4750909;350
5392;450.6;0.0198;0.0048;0.000150;0.4703636;350
5394;450.5;0.0198;0.0048;0.000150;0.4703636;350
5396;450.6;0.0198;0.0048;0.000150;0.4703636;350
5398;450.5;0.0198;0.0048;0.000150;0.4703636;350
5400;450.5;0.0198;0.0048;0.000150;0.4727273;350
5402;450.5;0.0198;0.0048;0.000150;0.4750909;350
5404;450.5;0.0198;0.0048;0.000150;0.4750909;350
5406;450.6;0.0198;0.0048;0.000150;0.4727273;350
5408;450.7;0.0198;0.0048;0.000150;0.4774545;350
5410;450.7;0.0198;0.0048;0.000150;0.4774545;350
5412;450.8;0.0198;0.0048;0.000150;0.4750909;350
5414;450.7;0.0198;0.0048;0.000150;0.4703636;350
5416;450.5;0.0198;0.0048;0.000150;0.468;350
5418;450.4;0.0198;0.0048;0.000150;0.468;350
5420;450.4;0.0198;0.0048;0.000150;0.4703636;350
5422;450.4;0.0198;0.0048;0.000150;0.4727273;350
5424;450.3;0.0198;0.0048;0.000150;0.4703636;350
5426;450.4;0.0198;0.0048;0.000150;0.4727273;350
5428;450.5;0.0198;0.0048;0.000150;0.4703636;350
5430;450.5;0.0198;0.0048;0.000150;0.4703636;350
5432;450.5;0.0198;0.0048;0.000150;0.468;350
5434;450.4;0.0198;0.0048;0.000150;0.468;350
5436;450.5;0.0198;0.0048;0.000150;0.4727273;350
5438;450.4;0.0198;0.0048;0.000150;0.4727273;350
5440;450.4;0.0198;0.0048;0.000150;0.4727273;350
5442;450.4;0.0198;0.0048;0.000150;0.4703636;350
5444;450.6;0.0198;0.0048;0.000150;0.4703636;350
5446;450.5;0.0198;0.0048;0.000150;0.4703636;350
5448;450.4;0.0198;0.0048;0.000150;0.468;350
5450;450.4;0.0198;0.0048;0.000150;0.468;350
5452;450.5;0.0198;0.0048;0.000150;0.468;350
5454;450.5;0.0198;0.0048;0.000150;0.4727273;350
5456;450.4;0.0198;0.0048;0.000150;0.4727273;350
5458;450.5;0.0198;0.0048;0.000150;0.4727273;350
5460;450.5;0.0198;0.0048;0.000150;0.4703636;350
5462;450.5;0.0198;0.0048;0.000150;0.4703636;350
5464;450.5;0.0198;0.0048;0.000150;0.4703636;350
5466;450.4;0.0198;0.0048;0.000150;0.468;350
5468;450.5;0.0198;0.0048;0.000150;0.468;350
5470;450.4;0.0198;0.0048;0.000150;0.468;350
5472;450.4;0.0198;0.0048;0.000150;0.4703636;350
5474;450.5;0.0198;0.0048;0.000150;0.4703636;350
5476;450.4;0.0198;0.0048;0.000150;0.4727273;350
5478;450.5;0.0198;0.0048;0.000150;0.4727273;350
5480;450.6;0.0198;0.0048;0.000150;0.4727273;350
5482;450.7;0.0198;0.0048;0.000150;0.4727273;350
5484;450.6;0.0198;0.0048;0.000150;0.468;350
5486;450.7;0.0198;0.0048;0.000150;0.4703636;350
5488;450.6;0.0198;0.0048;0.000150;0.468;350
5490;450.6;0.0198;0.0048;0.000150;0.468;350
5492;450.4;0.0198;0.0048;0.000150;0.4656364;350
5494;450.4;0.0198;0.0048;0.000150;0.4656364;350
5496;450.4;0.0198;0.0048;0.000150;0.4703636;350
5498;450.6;0.0198;0.0048;0.000150;0.4727273;350
5500;450.5;0.0198;0.0048;0.000150;0.4727273;350
5502;450.6;0.0198;0.0048;0.000150;0.4727273;350
5504;450.6;0.0198;0.0048;0.000150;0.4727273;350
5506;450.7;0.0198;0.0048;0.000150;0.4703636;329
5508;450.7;0.0198;0.0048;0.000150;0.468;315
5510;450.5;0.0198;0.0048;0.000150;0.468;280
5512;450.5;0.0198;0.0048;0.000150;0.4703636;252
5514;450.5;0.0198;0.0048;0.000150;0.4703636;238
5516;450.6;0.0198;0.0048;0.000150;0.4703636;217
5518;450.5;0.0198;0.0048;0.000150;0.4727273;224
5520;450.5;0.0198;0.0048;0.000150;0.468;231
5522;450.6;0.0198;0.0048;0.000150;0.4703636;224
5524;450.6;0.0198;0.0048;0.000150;0.468;224
5526;450.5;0.0198;0.0048;0.000150;0.468;266
5528;450.6;0.0198;0.0048;0.000150;0.4703636;280
5530;450.6;0.0198;0.0048;0.000150;0.4727273;301
5532;450.6;0.0198;0.0048;0.000150;0.4727273;336
5534;450.6;0.0198;0.0048;0.000150;0.4727273;350
5536;450.8;0.0198;0.0048;0.000150;0.4727273;350
5538;450.7;0.0198;0.0048;0.000150;0.4703636;350
5540;450.7;0.0198;0.0048;0.000150;0.4703636;350
5542;450.6;0.0198;0.0048;0.000150;0.468;350
5544;450.5;0.0198;0.0048;0.000150;0.468;350
5546;450.6;0.0198;0.0048;0.000150;0.4703636;350
5548;450.5;0.0198;0.0048;0.000150;0.4703636;350
5550;450.6;0.0198;0.0048;0.000150;0.4727273;350
5552;450.7;0.0198;0.0048;0.000150;0.4703636;350
5554;450.8;0.0198;0.0048;0.000150;0.4727273;350
5556;450.7;0.0198;0.0048;0.000150;0.4703636;350
5558;450.7;0.0198;0.0048;0.000150;0.468;350
5560;450.6;0.0198;0.0048;0.000150;0.4656364;350
5562;450.5;0.0198;0.0048;0.000150;0.4656364;350
5564;450.5;0.0198;0.0048;0.000150;0.4656364;350
5566;450.5;0.0198;0.0048;0.000150;0.468;350
5568;450.4;0.0198;0.0048;0.000150;0.4703636;350
5570;450.6;0.0198;0.0048;0.000150;0.4703636;350
5572;450.6;0.0198;0.0048;0.000150;0.4727273;350
5574;450.8;0.0198;0.0048;0.000150;0.4703636;350
5576;450.8;0.0198;0.0048;0.000150;0.4703636;350
5578;450.7;0.0198;0.0048;0.000150;0.468;350
5580;450.6;0.0198;0.0048;0.000150;0.468;350
5582;450.7;0.0198;0.0048;0.000150;0.468;350
5584;450.6;0.0198;0.0048;0.000150;0.468;350
5586;450.6;0.0198;0.0048;0.000150;0.4703636;350
5588;450.5;0.0198;0.0048;0.000150;0.4703636;350
5590;450.7;0.0198;0.0048;0.000150;0.4727273;350
5592;450.7;0.0198;0.0048;0.000150;0.4727273;350
5594;450.8;0.0198;0.0048;0.000150;0.4703636;350
5596;450.7;0.0198;0.0048;0.000150;0.468;350
5598;450.6;0.0198;0.0048;0.000150;0.468;350
5600;450.6;0.0198;0.0048;0.000150;0.4703636;350
5602;450.7;0.0198;0.0048;0.000150;0.4703636;350
5604;450.7;0.0198;0.0048;0.000150;0.4703636;350
5606;450.6;0.0198;0.0048;0.000150;0.468;350
5608;450.7;0.0198;0.0048;0.000150;0.468;350
5610;450.6;0.0198;0.0048;0.000150;0.468;350
5612;450.6;0.0198;0.0048;0.000150;0.4703636;350
5614;450.6;0.0198;0.0048;0.000150;0.4703636;350
5616;450.6;0.0198;0.0048;0.000150;0.4703636;350
5618;450.7;0.0198;0.0048;0.000150;0.4727273;350
5620;450.8;0.0198;0.0048;0.000150;0.468;350
5622;450.6;0.0198;0.0048;0.000150;0.468;350
5624;450.6;0.0198;0.0048;0.000150;0.4656364;350
5626;450.5;0.0198;0.0048;0.000150;0.468;350
5628;450.5;0.0198;0.0048;0.000150;0.4703636;350
5630;450.5;0.0198;0.0048;0.000150;0.468;350
5632;450.6;0.0198;0.0048;0.000150;0.4703636;350
5634;450.7;0.0198;0.0048;0.000150;0.468;350
5636;450.7;0.0198;0.0048;0.000150;0.468;350
5638;450.5;0.0198;0.0048;0.000150;0.468;350
5640;450.6;0.0198;0.0048;0.000150;0.4703636;350
5642;450.7;0.0198;0.0048;0.000150;0.4703636;350
5644;450.7;0.0198;0.0048;0.000150;0.4703636;350
5646;450.7;0.0198;0.0048;0.000150;0.468;350
5648;450.7;0.0198;0.0048;0.000150;0.4656364;350
5650;450.6;0.0198;0.0048;0.000150;0.4703636;350
5652;450.7;0.0198;0.0048;0.000150;0.4703636;350
5654;450.7;0.0198;0.0048;0.000150;0.4727273;350
5656;450.8;0.0198;0.0048;0.000150;0.4703636;350
5658;450.7;0.0198;0.0048;0.000150;0.4703636;350
5660;450.8;0.0198;0.0048;0.000150;0.4703636;350
5662;450.6;0.0198;0.0048;0.000150;0.4656364;350
5664;450.6;0.0198;0.0048;0.000150;0.4656364;350
5666;450.6;0.0198;0.0048;0.000150;0.468;350
5668;450.5;0.0198;0.0048;0.000150;0.4703636;350
5670;450.7;0.0198;0.0048;0.000150;0.4703636;350
5672;450.8;0.0198;0.0048;0.000150;0.4703636;350
5674;450.7;0.0198;0.0048;0.000150;0.468;350
5676;450.7;0.0198;0.0048;0.000150;0.468;350
5678;450.7;0.0198;0.0048;0.000150;0.468;350
5680;450.6;0.0198;0.0048;0.000150;0.4656364;350
5682;450.7;0.0198;0.0048;0.000150;0.468;350
5684;450.5;0.0198;0.0048;0.000150;0.4656364;350
5686;450.5;0.0198;0.0048;0.000150;0.468;350
5688;450.5;0.0198;0.0048;0.000150;0.4703636;350
5690;450.6;0.0198;0.0048;0.000150;0.4703636;350
5692;450.7;0.0198;0.0048;0.000150;0.468;350
5694;450.7;0.0198;0.0048;0.000150;0.4703636;350
5696;450.7;0.0198;0.0048;0.000150;0.468;350
5698;450.7;0.0198;0.0048;0.000150;0.4656364;350
5700;450.6;0.0198;0.0048;0.000150;0.468;350
5702;450.6;0.0198;0.0048;0.000150;0.4656364;350
5704;450.6;0.0198;0.0048;0.000150;0.468;350
5706;450.5;0.0198;0.0048;0.000150;0.468;350
5708;450.7;0.0198;0.0048;0.000150;0.4703636;350
5710;450.7;0.0198;0.0048;0.000150;0.4703636;350
5712;450.7;0.0198;0.0048;0.000150;0.4703636;350
5714;450.8;0.0198;0.0048;0.000150;0.4703636;350
5716;450.7;0.0198;0.0048;0.000150;0.468;350
5718;450.8;0.0198;0.0048;0.000150;0.468;350
5720;450.6;0.0198;0.0048;0.000150;0.4656364;350
5722;450.6;0.0198;0.0048;0.000150;0.4656364;350
5724;450.5;0.0198;0.0048;0.000150;0.4632727;350
5726;450.5;0.0198;0.0048;0.000150;0.468;350
5728;450.5;0.0198;0.0048;0.000150;0.4703636;350
5730;450.6;0.0198;0.0048;0.000150;0.468;350
5732;450.6;0.0198;0.0048;0.000150;0.468;350
5734;450.7;0.0198;0.0048;0.000150;0.4656364;350
5736;450.6;0.0198;0.0048;0.000150;0.4656364;350
5738;450.6;0.0198;0.0048;0.000150;0.4632727;350
5740;450.6;0.0198;0.0048;0.000150;0.468;350
5742;450.6;0.0198;0.0048;0.000150;0.468;350
5744;450.6;0.0198;0.0048;0.000150;0.468;350
5746;450.5;0.0198;0.0048;0.000150;0.4656364;350
5748;450.5;0.0198;0.0048;0.000150;0.4656364;350
5750;450.5;0.0198;0.0048;0.000150;0.4656364;350
5752;450.5;0.0198;0.0048;0.000150;0.4656364;350
5754;450.5;0.0198;0.0048;0.000150;0.4703636;350
5756;450.5;0.0198;0.0048;0.000150;0.468;350
5758;450.5;0.0198;0.0048;0.000150;0.468;350
5760;450.5;0.0198;0.0048;0.000150;0.4656364;350
5762;450.5;0.0198;0.0048;0.000150;0.4656364;350
5764;450.5;0.0198;0.0048;0.000150;0.4656364;350
5766;450.5;0.0198;0.0048;0.000150;0.468;350
5768;450.5;0.0198;0.0048;0.000150;0.4703636;350
5770;450.6;0.0198;0.0048;0.000150;0.468;350
5772;450.7;0.0198;0.0048;0.000150;0.468;350
5774;450.6;0.0198;0.0048;0.000150;0.4656364;350
5776;450.6;0.0198;0.0048;0.000150;0.4656364;350
5778;450.6;0.0198;0.0048;0.000150;0.4656364;350
5780;450.5;0.0198;0.0048;0.000150;0.4656364;350
5782;450.5;0.0198;0.0048;0.000150;0.468;350
5784;450.6;0.0198;0.0048;0.000150;0.468;350
5786;450.7;0.0198;0.0048;0.000150;0.4703636;350
5788;450.7;0.0198;0.0048;0.000150;0.468;350
5790;450.7;0.0198;0.0048;0.000150;0.468;350
5792;450.7;0.0198;0.0048;0.000150;0.468;350
5794;450.7;0.0198;0.0048;0.000150;0.4656364;350
5796;450.6;0.0198;0.0048;0.000150;0.4656364;350
5798;450.5;0.0198;0.0048;0.000150;0.4656364;350
5800;450.6;0.0198;0.0048;0.000150;0.468;350
5802;450.7;0.0198;0.0048;0.000150;0.468;350
5804;450.7;0.0198;0.0048;0.000150;0.468;350
5806;450.7;0.0198;0.0048;0.000150;0.4656364;350
5808;450.7;0.0198;0.0048;0.000150;0.4656364;350
5810;450.6;0.0198;0.0048;0.000150;0.4656364;350
5812;450.6;0.0198;0.0048;0.000150;0.4632727;350
5814;450.5;0.0198;0.0048;0.000150;0.4656364;350
5816;450.6;0.0198;0.0048;0.000150;0.4656364;350
5818;450.6;0.0198;0.0048;0.000150;0.4703636;350
5820;450.7;0.0198;0.0048;0.000150;0.4703636;350
5822;450.8;0.0198;0.0048;0.000150;0.4703636;350
5824;450.8;0.0198;0.0048;0.000150;0.468;350
5826;450.8;0.0198;0.0048;0.000150;0.468;350
5828;450.8;0.0198;0.0048;0.000150;0.4656364;350
5830;450.7;0.0198;0.0048;0.000150;0.4632727;350
5832;450.8;0.0198;0.0048;0.000150;0.4656364;350
5834;450.8;0.0198;0.0048;0.000150;0.468;350
5836;450.7;0.0198;0.0048;0.000150;0.4703636;350
5838;450.7;0.0198;0.0048;0.000150;0.468;350
5840;450.8;0.0198;0.0048;0.000150;0.468;350
5842;450.8;0.0198;0.0048;0.000150;0.468;350
5844;450.8;0.0198;0.0048;0.000150;0.4656364;350
5846;450.7;0.0198;0.0048;0.000150;0.4656364;350
5848;450.7;0.0198;0.0048;0.000150;0.4632727;350
5850;450.7;0.0198;0.0048;0.000150;0.468;350
5852;450.8;0.0198;0.0048;0.000150;0.4703636;350
5854;450.8;0.0198;0.0048;0.000150;0.4727273;350
5856;450.8;0.0198;0.0048;0.000150;0.468;350
5858;450.8;0.0198;0.0048;0.000150;0.468;350
5860;450.8;0.0198;0.0048;0.000150;0.4656364;350
5862;450.8;0.0198;0.0048;0.000150;0.4656364;350
5864;450.7;0.0198;0.0048;0.000150;0.4656364;350
5866;450.7;0.0198;0.0048;0.000150;0.4656364;315
5868;450.7;0.0198;0.0048;0.000150;0.468;294
5870;450.7;0.0198;0.0048;0.000150;0.4656364;280
5872;450.7;0.0198;0.0048;0.000150;0.468;259
5874;450.7;0.0198;0.0048;0.000150;0.4656364;259
5876;450.7;0.0198;0.0048;0.000150;0.4656364;273
5878;450.7;0.0198;0.0048;0.000150;0.468;294
5880;450.7;0.0198;0.0048;0.000150;0.468;308
5882;450.8;0.0198;0.0048;0.000150;0.468;329
5884;450.8;0.0198;0.0048;0.000150;0.468;336
5886;450.8;0.0198;0.0048;0.000150;0.468;350
5888;450.8;0.0198;0.0048;0.000150;0.4656364;350
5890;450.8;0.0198;0.0048;0.000150;0.4656364;350
5892;450.7;0.0198;0.0048;0.000150;0.4632727;350
5894;450.7;0.0198;0.0048;0.000150;0.4656364;350
5896;450.7;0.0198;0.0048;0.000150;0.468;350
5898;450.7;0.0198;0.0048;0.000150;0.468;350
5900;450.8;0.0198;0.0048;0.000150;0.468;350
5902;450.8;0.0198;0.0048;0.000150;0.4656364;350
5904;450.8;0.0198;0.0048;0.000150;0.468;350
5906;450.8;0.0198;0.0048;0.000150;0.4656364;350
5908;450.8;0.0198;0.0048;0.000150;0.4656364;350
5910;450.7;0.0198;0.0048;0.000150;0.4632727;350
5912;450.7;0.0198;0.0048;0.000150;0.4656364;350
5914;450.7;0.0198;0.0048;0.000150;0.4703636;350
5916;450.8;0.0198;0.0048;0.000150;0.468;350
5918;450.8;0.0198;0.0048;0.000150;0.468;350
5920;450.8;0.0198;0.0048;0.000150;0.4656364;350
5922;450.8;0.0198;0.0048;0.000150;0.4656364;350
5924;450.7;0.0198;0.0048;0.000150;0.4632727;350
5926;450.7;0.0198;0.0048;0.000150;0.4656364;350
5928;450.7;0.0198;0.0048;0.000150;0.468;350
5930;450.7;0.0198;0.0048;0.000150;0.468;350
5932;450.7;0.0198;0.0048;0.000150;0.468;350
5934;450.8;0.0198;0.0048;0.000150;0.4656364;350
5936;450.7;0.0198;0.0048;0.000150;0.4656364;350
5938;450.7;0.0198;0.0048;0.000150;0.4632727;350
5940;450.7;0.0198;0.0048;0.000150;0.4656364;350
5942;450.6;0.0198;0.0048;0.000150;0.4656364;350
5944;450.7;0.0198;0.0048;0.000150;0.4656364;350
5946;450.7;0.0198;0.0048;0.000150;0.468;350
5948;450.7;0.0198;0.0048;0.000150;0.468;350
5950;450.7;0.0198;0.0048;0.000150;0.468;350
