Time [s];T_cat [gradC];n_h2 [mol/s];n_ch4 [mol/s];n_h2_res [mol/s];m_DE [kg/h];Pel [W]
0;441;0.0485;0.0114;0.00252;1.22;490
2;441;0.0484;0.0113;0.00252;0;490
4;441;0.0483;0.0113;0.00251;0;490
6;441;0.0482;0.0112;0.00251;0;350
8;441;0.0481;0.0112;0.0025;0;350
10;441;0.048;0.0111;0.0025;0;350
12;441;0.0479;0.0111;0.00249;0;350
14;441;0.0478;0.0110;0.00249;0;350
16;441;0.0477;0.0110;0.00248;0;350
18;441;0.0476;0.0109;0.00248;0;350
20;441;0.0475;0.0109;0.00247;0;350
22;441;0.0474;0.0108;0.00247;0;350
24;442;0.0473;0.0108;0.00246;0;350
26;442;0.0472;0.0108;0.00246;0;350
28;442;0.0471;0.0101;0.00245;0;350
30;442;0.047;0.0101;0.00245;0;350
32;443;0.0469;0.0101;0.00244;0;350
34;443;0.0468;0.0101;0.00244;0;448
36;443;0.0467;0.0100;0.00243;0;490
38;443;0.0466;0.0100;0.00243;0;490
40;444;0.0465;0.0100;0.00242;0;490
42;444;0.0464;0.0100;0.00242;0;490
44;445;0.0463;0.0100;0.00241;0;378
46;445;0.0462;0.0099;0.00241;0;350
48;446;0.0461;0.0099;0.0024;0;350
50;446;0.046;0.0099;0.0024;0;350
52;447;0.0459;0.0099;0.00239;0;350
54;447;0.0458;0.0099;0.00239;0;350
56;447;0.0457;0.0098;0.00238;0;350
58;448;0.0456;0.0098;0.00238;0;350
60;448;0.0455;0.0098;0.00237;0;350
62;449;0.0454;0.0098;0.00237;0;350
64;449;0.0452;0.0094;0.00265;0;350
66;450;0.0451;0.0094;0.00264;0;350
68;451;0.0451;0.0093;0.00262;0;350
70;451;0.0449;0.0093;0.00263;0;350
72;452;0.0449;0.0093;0.00261;0;350
74;452;0.0448;0.0093;0.00262;0;406
76;453;0.0446;0.0093;0.0026;0;490
78;453;0.0445;0.0092;0.00262;0;490
80;454;0.0444;0.0092;0.00259;0;490
82;455;0.0443;0.0092;0.0026;0;490
84;455;0.0442;0.0092;0.00258;0;420
86;456;0.0441;0.0091;0.00258;0;350
88;456;0.044;0.0091;0.00257;0;350
90;457;0.0439;0.0091;0.00256;0;350
92;457;0.0438;0.0091;0.00255;0;350
94;458;0.0437;0.0091;0.00254;0;350
96;459;0.0436;0.0091;0.00254;0;350
98;459;0.0435;0.0091;0.00252;0;350
100;460;0.0434;0.0090;0.00252;0;350
102;461;0.0433;0.0090;0.0025;0;350
104;461;0.0432;0.0090;0.00251;0;350
106;462;0.0431;0.0090;0.00248;0;350
108;463;0.043;0.0090;0.00248;0;350
110;463;0.0429;0.0090;0.00246;0;350
112;464;0.0428;0.0090;0.00244;0;350
114;464;0.0427;0.0089;0.00245;0;350
116;465;0.0426;0.0089;0.00243;0;476
118;466;0.0425;0.0089;0.00243;0;490
120;466;0.0424;0.0089;0.00241;0;490
122;467;0.0423;0.0089;0.00241;0;490
124;467;0.0422;0.0088;0.0024;0;490
126;468;0.0421;0.0088;0.00237;0;378
128;468;0.042;0.0088;0.00239;0;350
130;469;0.0419;0.0088;0.00237;0;350
132;469;0.0418;0.0088;0.00237;0;350
134;470;0.0417;0.0087;0.00237;0;350
136;470;0.0416;0.0088;0.00233;0;350
138;471;0.0415;0.0087;0.00235;0;350
140;471;0.0414;0.0087;0.00233;0;350
142;472;0.0413;0.0087;0.00232;0;350
144;472;0.0412;0.0086;0.00232;0;350
146;473;0.0411;0.0086;0.00232;0;350
148;473;0.041;0.0086;0.00231;0;350
150;474;0.0409;0.0086;0.0023;0;350
152;474;0.0408;0.0086;0.00228;0;350
154;474;0.0407;0.0085;0.00229;0;406
156;475;0.0405;0.0085;0.00228;0;490
158;475;0.0404;0.0085;0.00227;0;490
160;476;0.0403;0.0085;0.00224;0;490
162;476;0.0402;0.0085;0.00226;0;490
164;476;0.0401;0.0085;0.00226;0;420
166;477;0.04;0.0084;0.00224;0;350
168;477;0.0399;0.0084;0.00223;0;350
170;478;0.0398;0.0084;0.00222;0;350
172;478;0.0397;0.0084;0.00223;0;350
174;478;0.0396;0.0084;0.00222;0;350
176;479;0.0395;0.0084;0.00219;0;350
178;479;0.0394;0.0083;0.0022;0;350
180;479;0.0393;0.0083;0.0022;0;350
182;480;0.0392;0.0083;0.00218;0;350
184;480;0.0391;0.0083;0.00216;0;350
186;480;0.039;0.0082;0.00218;0;350
188;481;0.0389;0.0082;0.00216;0;350
190;481;0.0388;0.0082;0.00213;0;350
192;481;0.0387;0.0082;0.00214;0;434
194;482;0.0386;0.0082;0.00214;0;490
196;482;0.0385;0.0082;0.00213;0;490
198;482;0.0384;0.0081;0.00212;0;490
200;483;0.0383;0.0081;0.00211;0;490
202;483;0.0382;0.0081;0.00212;0;392
204;483;0.0381;0.0081;0.00211;0;350
206;484;0.038;0.0080;0.0021;0;350
208;484;0.0379;0.0080;0.00209;0;350
210;484;0.0378;0.0080;0.00206;0;350
212;485;0.0377;0.0080;0.00207;0;350
214;485;0.0376;0.0080;0.00208;0;350
216;485;0.0375;0.0079;0.00207;0;350
218;486;0.0374;0.0079;0.00206;0;350
220;486;0.0373;0.0079;0.00205;0;350
222;486;0.0372;0.0079;0.00203;0;406
224;486;0.0371;0.0079;0.00203;0;490
226;487;0.037;0.0078;0.00204;0;490
228;487;0.0369;0.0078;0.00204;0;490
230;487;0.0368;0.0078;0.00203;0;490
232;487;0.0367;0.0078;0.00203;0;420
234;487;0.0366;0.0077;0.00202;0;350
236;488;0.0365;0.0077;0.00201;0;350
238;488;0.0363;0.0077;0.00199;0;350
240;488;0.0362;0.0077;0.00198;0;350
242;488;0.0361;0.0077;0.00197;0;350
244;489;0.036;0.0077;0.00196;0;350
246;489;0.036;0.0077;0.00195;0;350
248;489;0.0358;0.0076;0.00195;0;350
250;489;0.0357;0.0076;0.00194;0;350
252;490;0.0356;0.0076;0.00194;0;350
254;490;0.0355;0.0076;0.00193;0;350
256;490;0.0354;0.0075;0.00193;0;350
258;490;0.0353;0.0075;0.00192;0;350
260;491;0.0352;0.0075;0.00191;0;378
262;491;0.0351;0.0075;0.00191;0;490
264;491;0.035;0.0075;0.00189;0;490
266;491;0.0349;0.0074;0.00188;0;490
268;491;0.0348;0.0074;0.00187;0;490
270;492;0.0347;0.0074;0.00186;0;448
272;492;0.0346;0.0074;0.00187;0;350
274;492;0.0345;0.0073;0.00187;0;350
276;492;0.0344;0.0073;0.00187;0;350
278;492;0.0343;0.0073;0.00185;0;350
280;492;0.0342;0.0073;0.00185;0;350
282;492;0.0341;0.0073;0.00183;0;350
284;492;0.034;0.0073;0.00182;0;350
286;493;0.0339;0.0072;0.00182;0;350
288;493;0.0338;0.0072;0.0018;0;350
290;493;0.0337;0.0072;0.0018;0;350
292;493;0.0336;0.0072;0.0018;0;350
294;493;0.0335;0.0071;0.0018;0;350
296;493;0.0334;0.0071;0.0018;0;378
298;493;0.0333;0.0071;0.00178;0;490
300;494;0.0332;0.0071;0.00177;0;490
302;494;0.0331;0.0071;0.00176;0;490
304;494;0.033;0.0071;0.00175;0;490
306;494;0.0329;0.0070;0.00175;0;462
308;494;0.0328;0.0070;0.00175;0;350
310;495;0.0327;0.0070;0.00175;0;350
312;495;0.0326;0.0069;0.00174;0;350
314;495;0.0325;0.0069;0.00173;0;350
316;495;0.0324;0.0069;0.00172;0;350
318;495;0.0323;0.0069;0.0017;0;350
320;496;0.0322;0.0069;0.0017;0;350
322;496;0.0321;0.0069;0.00169;0;350
324;496;0.0319;0.0068;0.00169;0;350
326;496;0.0318;0.0068;0.00169;0;350
328;496;0.0317;0.0068;0.00168;0;350
330;496;0.0316;0.0068;0.00167;0;364
332;496;0.0315;0.0068;0.00166;0;490
334;496;0.0314;0.0067;0.00164;0;490
336;496;0.0313;0.0067;0.00163;0;490
338;496;0.0312;0.0067;0.00163;0;490
340;496;0.0311;0.0067;0.00164;0;476
342;496;0.031;0.0066;0.00163;0;350
344;496;0.0309;0.0066;0.00162;0;350
346;496;0.0308;0.0066;0.00161;0;350
348;496;0.0307;0.0066;0.0016;0;350
350;496;0.0306;0.0066;0.0016;0;350
352;496;0.0305;0.0065;0.0016;0;350
354;496;0.0304;0.0065;0.0016;0;350
356;496;0.0303;0.0065;0.00159;0;350
358;496;0.0302;0.0065;0.00158;0;350
360;496;0.0301;0.0064;0.00156;0;350
362;497;0.03;0.0064;0.00157;0;350
364;497;0.0299;0.0064;0.00156;0;420
366;497;0.0298;0.0064;0.00156;0;490
368;497;0.0297;0.0064;0.00154;0;490
370;497;0.0296;0.0063;0.00153;0;490
372;497;0.0295;0.0063;0.00153;0;490
374;497;0.0294;0.0063;0.00153;0;420
376;497;0.0293;0.0063;0.00152;0;350
378;497;0.0292;0.0062;0.00151;0;350
380;497;0.0291;0.0062;0.0015;0;350
382;497;0.029;0.0062;0.00149;0;350
384;497;0.0289;0.0062;0.00149;0;350
386;497;0.0288;0.0062;0.00149;0;350
388;497;0.0287;0.0061;0.00149;0;350
390;497;0.0286;0.0061;0.00148;0;350
392;497;0.0285;0.0061;0.00147;0;350
394;497;0.0284;0.0061;0.00145;0;350
396;497;0.0283;0.0061;0.00145;0;350
398;497;0.0282;0.0060;0.00145;0;350
400;497;0.0281;0.0060;0.00144;0;490
402;497;0.028;0.0060;0.00143;0;490
404;497;0.0279;0.0060;0.00142;0;490
406;497;0.0278;0.0060;0.00141;0;490
408;497;0.0277;0.0059;0.00141;0;490
410;497;0.0276;0.0059;0.0014;0;350
412;496;0.0275;0.0059;0.00139;0;350
414;496;0.0273;0.0059;0.00138;0;350
416;496;0.0272;0.0058;0.00138;0;350
418;496;0.0271;0.0058;0.00138;0;350
420;496;0.027;0.0058;0.00137;0;350
422;496;0.0269;0.0058;0.00135;0;350
424;496;0.0268;0.0058;0.00134;0;350
426;496;0.0267;0.0057;0.00135;0;350
428;496;0.0266;0.0057;0.00134;0;350
430;496;0.0265;0.0057;0.00133;0;350
432;496;0.0264;0.0057;0.00132;0;406
434;495;0.0263;0.0056;0.00131;0;490
436;495;0.0262;0.0056;0.00131;0;490
438;495;0.0261;0.0056;0.00131;0;490
440;495;0.026;0.0056;0.0013;0;490
442;495;0.0259;0.0056;0.00129;0;420
444;495;0.0258;0.0055;0.00129;0;350
446;495;0.0257;0.0055;0.00129;0;350
448;495;0.0256;0.0055;0.00128;0;350
450;494;0.0255;0.0055;0.00127;0;350
452;494;0.0254;0.0054;0.00128;0;350
454;494;0.0253;0.0054;0.00128;0;350
456;494;0.0252;0.0054;0.00126;0;350
458;494;0.0251;0.0054;0.00125;0;350
460;494;0.025;0.0053;0.00126;0;420
462;493;0.0249;0.0053;0.00125;0;490
464;493;0.0248;0.0053;0.00123;0;490
466;493;0.0247;0.0053;0.00124;0;490
468;493;0.0246;0.0053;0.00122;0;490
470;493;0.0245;0.0052;0.00121;0;420
472;492;0.0244;0.0052;0.00121;0;350
474;492;0.0243;0.0052;0.0012;0;350
476;492;0.0242;0.0052;0.00118;0;350
478;492;0.0241;0.0052;0.00118;0;350
480;491;0.024;0.0051;0.00117;0;350
482;491;0.0239;0.0051;0.00116;0;350
484;491;0.0238;0.0051;0.00114;0;350
486;491;0.0237;0.0051;0.00115;0;350
488;491;0.0236;0.0050;0.00114;0;350
490;490;0.0235;0.0050;0.00113;0;350
492;490;0.0234;0.0050;0.00112;0;350
494;490;0.0233;0.0050;0.00113;0;350
496;490;0.0232;0.0049;0.00113;0;420
498;489;0.023;0.0049;0.00112;0;490
500;489;0.023;0.0049;0.0011;0;490
502;489;0.0228;0.0049;0.00111;0;490
504;489;0.0227;0.0048;0.0011;0;490
506;488;0.0226;0.0048;0.0011;0;420
508;488;0.0225;0.0048;0.00108;0;350
510;488;0.0224;0.0048;0.00109;0;350
512;488;0.0223;0.0048;0.00108;0;350
514;487;0.0222;0.0047;0.00106;0;350
516;487;0.0221;0.0047;0.00106;0;350
518;487;0.022;0.0047;0.00106;0;350
520;486;0.0219;0.0047;0.00105;0;350
522;486;0.0218;0.0046;0.00104;0;350
524;486;0.0217;0.0046;0.00105;0;350
526;485;0.0216;0.0046;0.00104;0;448
528;485;0.0215;0.0046;0.00103;0;490
530;485;0.0214;0.0046;0.00103;0;490
532;484;0.0213;0.0045;0.00103;0;490
534;484;0.0212;0.0045;0.00102;0;490
536;484;0.0211;0.0045;0.00101;0;392
538;483;0.021;0.0045;0.00101;0;350
540;483;0.0209;0.0044;0.001;0;350
542;483;0.0208;0.0044;0.000982;0;350
544;482;0.0207;0.0044;0.00098;0;350
546;482;0.0206;0.0044;0.000973;0;350
548;481;0.0205;0.0044;0.000959;0;350
550;481;0.0204;0.0043;0.000952;0;350
552;481;0.0203;0.0043;0.000953;0;350
554;480;0.0202;0.0043;0.00094;0;350
556;480;0.0201;0.0043;0.000927;0;350
558;479;0.02;0.0042;0.000931;0;350
560;479;0.0199;0.0042;0.00092;0;490
562;479;0.0198;0.0042;0.000912;1.49;490
564;478;0.0198;0.0042;0.000922;1.48;490
566;478;0.0198;0.0042;0.000925;1.48;490
568;477;0.0198;0.0042;0.000915;1.48;490
570;477;0.0198;0.0042;0.00092;1.48;350
572;477;0.0198;0.0042;0.000922;1.48;350
574;477;0.0198;0.0042;0.000915;1.48;350
576;477;0.0198;0.0042;0.000907;1.48;350
578;477;0.0198;0.0042;0.000914;1.48;350
580;477;0.0198;0.0042;0.000909;1.48;350
582;477;0.0198;0.0042;0.0009;1.48;350
584;477;0.0198;0.0042;0.000909;1.48;350
586;477;0.0198;0.0042;0.000902;1.48;350
588;477;0.0198;0.0042;0.000895;1.48;350
590;477;0.0198;0.0042;0.000892;1.48;378
592;477;0.0198;0.0042;0.000895;1.48;490
594;476;0.0198;0.0042;0.00089;1.48;490
596;476;0.0198;0.0043;0.000882;1.48;490
598;476;0.0198;0.0042;0.000892;1.48;490
600;475;0.0198;0.0043;0.000887;1.47;448
602;475;0.0198;0.0043;0.000873;1.47;350
604;474;0.0198;0.0043;0.000886;1.47;350
606;474;0.0198;0.0043;0.000882;1.47;350
608;473;0.0198;0.0043;0.000876;1.46;350
610;473;0.0198;0.0043;0.000882;1.46;350
612;472;0.0198;0.0043;0.000883;1.46;350
614;472;0.0198;0.0043;0.000874;1.46;350
616;471;0.0198;0.0043;0.000876;1.46;350
618;471;0.0198;0.0043;0.000877;1.45;350
620;471;0.0198;0.0043;0.000868;1.45;350
622;470;0.0198;0.0043;0.00087;1.45;364
624;470;0.0198;0.0043;0.00087;1.45;490
626;469;0.0198;0.0043;0.00086;1.45;490
628;469;0.0198;0.0043;0.000864;1.44;490
630;469;0.0198;0.0043;0.000862;1.44;490
632;468;0.0198;0.0043;0.000847;1.44;476
634;468;0.0198;0.0043;0.000858;1.44;350
636;467;0.0198;0.0043;0.000849;1.43;350
638;467;0.0198;0.0043;0.000843;1.43;350
640;466;0.0198;0.0043;0.000849;1.43;350
642;466;0.0198;0.0043;0.000839;1.43;350
644;465;0.0198;0.0043;0.000844;1.42;350
646;464;0.0198;0.0043;0.000846;1.42;350
648;464;0.0198;0.0043;0.000837;1.42;350
650;463;0.0198;0.0043;0.000846;1.42;350
652;463;0.0198;0.0043;0.000841;1.41;350
654;462;0.0198;0.0043;0.000836;1.41;476
656;462;0.0198;0.0043;0.000842;1.41;490
658;461;0.0198;0.0043;0.000835;1.41;490
660;461;0.0198;0.0043;0.000833;1.4;490
662;460;0.0198;0.0043;0.000837;1.4;490
664;460;0.0198;0.0043;0.000831;1.4;364
666;459;0.0198;0.0043;0.000836;1.39;350
668;459;0.0198;0.0043;0.00083;1.39;350
670;458;0.0198;0.0043;0.000827;1.39;350
672;457;0.0198;0.0043;0.000828;1.38;350
674;456;0.0198;0.0043;0.00082;1.38;350
676;455;0.0198;0.0043;0.000832;1.37;350
678;454;0.0198;0.0043;0.000825;1.37;350
680;454;0.0198;0.0043;0.000834;1.36;350
682;453;0.0198;0.0043;0.000832;1.36;350
684;451;0.0198;0.0043;0.000827;1.35;462
686;450;0.0198;0.0043;0.000831;1.35;490
688;449;0.0198;0.0043;0.000817;1.34;490
690;448;0.0198;0.0043;0.000831;1.34;490
692;448;0.0198;0.0043;0.000823;1.33;490
694;447;0.0198;0.0043;0.000825;1.33;364
696;446;0.0198;0.0043;0.000822;1.32;350
698;445;0.0198;0.0043;0.000811;1.32;350
700;444;0.0198;0.0043;0.000817;1.31;350
702;444;0.0198;0.0043;0.000808;1.31;350
704;443;0.0198;0.0043;0.000811;1.31;350
706;443;0.0198;0.0043;0.000807;1.31;350
708;442;0.0198;0.0043;0.000797;1.3;350
710;442;0.0198;0.0043;0.000808;1.3;350
712;441;0.0198;0.0043;0.000795;1.3;350
714;441;0.0198;0.0043;0.000801;1.29;350
716;440;0.0198;0.0043;0.000791;1.29;490
718;439;0.0198;0.0043;0.000789;1.28;490
720;439;0.0198;0.0043;0.000795;1.28;490
722;439;0.0198;0.0043;0.00078;1.28;490
724;438;0.0198;0.0043;0.000794;1.27;476
726;438;0.0198;0.0043;0.000786;1.27;350
728;437;0.0198;0.0043;0.000795;1.27;350
730;437;0.0198;0.0043;0.000789;1.26;350
732;436;0.0198;0.0043;0.000787;1.26;350
734;436;0.0198;0.0043;0.00079;1.25;350
736;435;0.0198;0.0043;0.000783;1.25;350
738;435;0.0198;0.0043;0.000793;1.25;350
740;434;0.0198;0.0043;0.000783;1.25;350
742;434;0.0198;0.0043;0.000785;1.25;350
744;433;0.0198;0.0043;0.000779;1.24;350
746;433;0.0198;0.0044;0.000772;1.24;350
748;433;0.0198;0.0043;0.000777;1.23;392
750;432;0.0198;0.0044;0.000769;1.23;490
752;432;0.0198;0.0044;0.000775;1.23;490
754;431;0.0198;0.0044;0.000772;1.22;490
756;431;0.0198;0.0044;0.000759;1.22;490
758;430;0.0198;0.0044;0.000768;1.22;434
760;430;0.0198;0.0044;0.000759;1.21;350
762;430;0.0198;0.0044;0.000762;1.21;350
764;429;0.0198;0.0044;0.000763;1.21;350
766;429;0.0198;0.0044;0.000754;1.21;350
768;429;0.0198;0.0044;0.000759;1.2;350
770;428;0.0198;0.0044;0.000753;1.2;350
772;428;0.0198;0.0044;0.000752;1.2;350
774;428;0.0198;0.0044;0.000755;1.19;350
776;427;0.0198;0.0044;0.000742;1.19;350
778;427;0.0198;0.0044;0.000755;1.19;350
780;427;0.0198;0.0044;0.000749;1.19;490
782;426;0.0198;0.0044;0.000751;1.18;490
784;426;0.0198;0.0044;0.000753;1.18;490
786;425;0.0198;0.0044;0.000742;1.18;490
788;425;0.0198;0.0044;0.000752;1.17;490
790;425;0.0198;0.0044;0.000743;1.17;350
792;424;0.0198;0.0044;0.000744;1.17;350
794;424;0.0198;0.0044;0.000746;1.16;350
796;424;0.0198;0.0044;0.000728;1.16;350
798;424;0.0198;0.0044;0.000737;1.16;350
800;423;0.0198;0.0044;0.000732;1.15;350
802;423;0.0198;0.0044;0.00073;1.15;350
804;423;0.0198;0.0044;0.000738;1.15;350
806;422;0.0198;0.0044;0.000726;1.15;350
808;422;0.0198;0.0044;0.000736;1.15;350
810;422;0.0198;0.0044;0.000728;1.14;434
812;422;0.0198;0.0044;0.000733;1.14;490
814;421;0.0198;0.0044;0.000724;1.14;490
816;421;0.0198;0.0044;0.000723;1.13;490
818;421;0.0198;0.0044;0.000724;1.13;490
820;421;0.0198;0.0044;0.000714;1.13;406
822;420;0.0198;0.0044;0.000718;1.12;350
824;420;0.0198;0.0044;0.000711;1.12;350
826;420;0.0198;0.0044;0.00071;1.12;350
828;419;0.0198;0.0044;0.000702;1.11;350
830;419;0.0198;0.0044;0.000702;1.11;350
832;419;0.0198;0.0044;0.000697;1.11;350
834;419;0.0198;0.0044;0.000696;1.1;350
836;418;0.0198;0.0044;0.000697;1.1;350
838;418;0.0198;0.0044;0.000689;1.1;350
840;418;0.0198;0.0044;0.000698;1.1;350
842;418;0.0198;0.0044;0.000692;1.1;462
844;418;0.0198;0.0044;0.000693;1.09;490
846;417;0.0198;0.0044;0.000693;1.09;490
848;417;0.0198;0.0044;0.000686;1.09;490
850;417;0.0198;0.0044;0.000695;1.08;490
852;417;0.0198;0.0044;0.000689;1.08;378
854;416;0.0198;0.0044;0.000688;1.08;350
856;416;0.0198;0.0044;0.000693;1.08;350
858;416;0.0198;0.0044;0.000683;1.08;350
860;416;0.0198;0.0044;0.000694;1.07;350
862;416;0.0198;0.0044;0.000685;1.07;350
864;416;0.0198;0.0044;0.000686;1.06;350
866;415;0.0198;0.0044;0.000686;1.06;350
868;415;0.0198;0.0044;0.000678;1.06;350
870;415;0.0198;0.0044;0.000684;1.06;350
872;415;0.0198;0.0044;0.000674;1.06;350
874;415;0.0198;0.0044;0.00068;1.05;476
876;415;0.0198;0.0044;0.000672;1.05;490
878;414;0.0198;0.0044;0.00067;1.05;490
880;414;0.0198;0.0044;0.000668;1.05;490
882;414;0.0198;0.0044;0.000661;1.04;490
884;414;0.0198;0.0044;0.000666;1.04;350
886;414;0.0198;0.0045;0.000656;1.04;350
888;414;0.0198;0.0045;0.00066;1.04;350
890;413;0.0198;0.0045;0.000653;1.03;350
892;413;0.0198;0.0045;0.000654;1.03;350
894;413;0.0198;0.0045;0.000654;1.03;350
896;413;0.0198;0.0045;0.000646;1.03;350
898;413;0.0198;0.0045;0.000652;1.03;350
900;413;0.0198;0.0045;0.000643;1.02;350
902;413;0.0198;0.0045;0.00065;1.02;350
904;413;0.0198;0.0045;0.000639;1.02;392
906;413;0.0198;0.0045;0.000647;1.02;490
908;413;0.0198;0.0045;0.00064;1.01;490
910;412;0.0198;0.0045;0.000646;1.01;490
912;412;0.0198;0.0045;0.00064;1.01;490
914;412;0.0198;0.0045;0.000646;1.01;448
916;412;0.0198;0.0045;0.000639;1.01;350
918;412;0.0198;0.0045;0.000638;1;350
920;412;0.0198;0.0045;0.000635;0.998;350
922;412;0.0198;0.0045;0.000635;0.996;350
924;412;0.0198;0.0045;0.000636;0.993;350
926;412;0.0198;0.0045;0.000627;0.992;350
928;412;0.0198;0.0045;0.000639;0.991;350
930;412;0.0198;0.0045;0.000624;0.988;350
932;412;0.0198;0.0045;0.000632;0.988;350
934;411;0.0198;0.0045;0.000625;0.985;350
936;411;0.0198;0.0045;0.00063;0.984;462
938;411;0.0198;0.0045;0.000625;0.982;490
940;411;0.0198;0.0045;0.000629;0.977;490
942;411;0.0198;0.0045;0.000623;0.976;490
944;411;0.0198;0.0045;0.000623;0.971;490
946;411;0.0198;0.0045;0.000621;0.97;378
948;411;0.0198;0.0045;0.000617;0.967;350
950;411;0.0198;0.0045;0.000623;0.964;350
952;411;0.0198;0.0045;0.000614;0.964;350
954;411;0.0198;0.0045;0.000617;0.96;350
956;411;0.0198;0.0045;0.000606;0.96;350
958;411;0.0198;0.0045;0.000614;0.958;350
960;411;0.0198;0.0045;0.000602;0.956;350
962;411;0.0198;0.0045;0.000609;0.956;350
964;411;0.0198;0.0045;0.000596;0.954;350
966;411;0.0198;0.0045;0.000607;0.952;350
968;411;0.0198;0.0045;0.000599;0.949;434
970;411;0.0198;0.0045;0.000607;0.946;490
972;411;0.0198;0.0045;0.000597;0.944;490
974;411;0.0198;0.0045;0.000606;0.94;490
976;411;0.0198;0.0045;0.000599;0.939;490
978;410;0.0198;0.0045;0.000608;0.936;406
980;410;0.0198;0.0045;0.000602;0.933;350
982;410;0.0198;0.0045;0.000606;0.933;350
984;410;0.0198;0.0045;0.0006;0.929;350
986;410;0.0198;0.0045;0.000603;0.93;350
988;410;0.0198;0.0045;0.000594;0.929;350
990;410;0.0198;0.0045;0.0006;0.927;350
992;411;0.0198;0.0045;0.000594;0.927;350
994;411;0.0198;0.0045;0.000597;0.923;350
996;411;0.0198;0.0045;0.0006;0.922;350
998;411;0.0198;0.0045;0.00059;0.92;350
1000;411;0.0198;0.0045;0.000597;0.918;392
1002;411;0.0198;0.0045;0.000591;0.917;490
1004;411;0.0198;0.0045;0.000598;0.915;490
1006;411;0.0198;0.0045;0.000594;0.914;490
1008;411;0.0198;0.0045;0.000593;0.91;490
1010;411;0.0198;0.0045;0.000598;0.908;448
1012;411;0.0198;0.0045;0.000586;0.908;350
1014;411;0.0198;0.0045;0.000597;0.904;350
1016;411;0.0198;0.0045;0.000586;0.904;350
1018;411;0.0198;0.0045;0.000595;0.902;350
1020;411;0.0198;0.0045;0.000589;0.899;350
1022;411;0.0198;0.0045;0.000594;0.899;350
1024;411;0.0198;0.0045;0.000588;0.896;350
1026;411;0.0198;0.0045;0.000593;0.895;350
1028;411;0.0198;0.0045;0.000587;0.892;350
1030;411;0.0198;0.0045;0.000594;0.889;350
1032;411;0.0198;0.0045;0.000584;0.888;350
1034;411;0.0198;0.0045;0.00059;0.884;476
1036;410;0.0198;0.0045;0.000578;0.881;490
1038;410;0.0198;0.0045;0.000583;0.879;490
1040;410;0.0198;0.0045;0.00057;0.878;490
1042;411;0.0198;0.0045;0.000578;0.879;490
1044;411;0.0198;0.0045;0.00057;0.877;364
1046;411;0.0198;0.0045;0.000574;0.876;350
1048;411;0.0198;0.0045;0.000568;0.873;350
1050;411;0.0198;0.0045;0.000572;0.871;350
1052;411;0.0198;0.0045;0.000568;0.871;350
1054;411;0.0198;0.0045;0.000567;0.867;350
1056;411;0.0198;0.0045;0.000573;0.866;350
1058;411;0.0198;0.0045;0.000566;0.864;350
1060;411;0.0198;0.0045;0.000572;0.86;350
1062;411;0.0198;0.0045;0.000568;0.859;350
1064;411;0.0198;0.0045;0.000571;0.856;350
1066;411;0.0198;0.0045;0.000571;0.855;406
1068;411;0.0198;0.0045;0.000567;0.853;490
1070;411;0.0198;0.0045;0.000574;0.85;490
1072;411;0.0198;0.0045;0.000567;0.851;490
1074;411;0.0198;0.0045;0.000572;0.848;490
1076;411;0.0198;0.0045;0.000566;0.846;434
1078;411;0.0198;0.0045;0.000566;0.845;350
1080;411;0.0198;0.0045;0.000569;0.842;350
1082;411;0.0198;0.0045;0.000562;0.842;350
1084;411;0.0198;0.0045;0.00057;0.838;350
1086;411;0.0198;0.0045;0.000563;0.837;350
1088;411;0.0198;0.0045;0.000574;0.834;350
1090;411;0.0198;0.0045;0.000566;0.832;350
1092;411;0.0198;0.0045;0.000569;0.832;350
1094;411;0.0198;0.0045;0.00057;0.828;350
1096;411;0.0198;0.0045;0.000564;0.827;350
1098;411;0.0198;0.0045;0.000567;0.826;350
1100;411;0.0198;0.0045;0.000558;0.823;378
1102;411;0.0198;0.0045;0.000564;0.823;490
1104;411;0.0198;0.0045;0.000559;0.819;490
1106;411;0.0198;0.0045;0.00056;0.819;490
1108;411;0.0198;0.0045;0.000558;0.817;490
1110;411;0.0198;0.0045;0.000555;0.815;462
1112;411;0.0198;0.0045;0.000557;0.815;350
1114;411;0.0198;0.0045;0.000549;0.812;350
1116;411;0.0198;0.0045;0.000558;0.811;350
1118;411;0.0198;0.0045;0.000554;0.809;350
1120;411;0.0198;0.0045;0.000561;0.807;350
1122;411;0.0198;0.0045;0.000559;0.806;350
1124;411;0.0198;0.0045;0.000555;0.801;350
1126;411;0.0198;0.0045;0.000562;0.799;350
1128;411;0.0198;0.0045;0.000556;0.796;350
1130;411;0.0198;0.0045;0.000563;0.796;350
1132;411;0.0198;0.0045;0.000559;0.796;350
1134;411;0.0198;0.0045;0.000559;0.794;420
1136;411;0.0198;0.0045;0.000558;0.793;490
1138;411;0.0198;0.0045;0.00055;0.795;490
1140;411;0.0198;0.0045;0.000558;0.789;490
1142;411;0.0198;0.0045;0.000549;0.786;490
1144;411;0.0198;0.0045;0.000553;0.784;420
1146;411;0.0198;0.0045;0.000551;0.785;350
1148;412;0.0198;0.0045;0.000549;0.783;350
1150;412;0.0198;0.0045;0.000551;0.78;350
1152;412;0.0198;0.0046;0.00054;0.779;350
1154;412;0.0198;0.0045;0.000549;0.777;350
1156;412;0.0198;0.0045;0.000543;0.778;350
1158;412;0.0198;0.0045;0.000551;0.775;350
1160;412;0.0198;0.0045;0.00055;0.774;350
1162;412;0.0198;0.0045;0.000551;0.774;350
1164;412;0.0198;0.0045;0.000552;0.771;350
1166;412;0.0198;0.0045;0.000545;0.77;350
1168;412;0.0198;0.0045;0.000551;0.766;350
1170;412;0.0198;0.0045;0.000549;0.765;476
1172;412;0.0198;0.0045;0.00055;0.766;490
1174;412;0.0198;0.0045;0.000554;0.763;490
1176;413;0.0198;0.0045;0.000542;0.764;490
1178;413;0.0198;0.0045;0.000556;0.762;490
1180;413;0.0198;0.0045;0.000551;0.759;378
1182;413;0.0198;0.0045;0.000545;0.756;350
1184;413;0.0198;0.0045;0.000548;0.753;350
1186;413;0.0198;0.0045;0.000544;0.753;350
1188;413;0.0198;0.0045;0.000542;0.754;350
1190;413;0.0198;0.0045;0.000545;0.752;350
1192;413;0.0198;0.0046;0.000534;0.752;350
1194;413;0.0198;0.0046;0.000537;0.747;350
1196;413;0.0198;0.0046;0.000539;0.747;350
1198;413;0.0198;0.0046;0.000525;0.744;350
1200;413;0.0198;0.0046;0.000535;0.742;350
1202;413;0.0198;0.0046;0.000536;0.743;350
1204;413;0.0198;0.0046;0.000532;0.742;350
1206;414;0.0198;0.0046;0.000535;0.741;350
1208;414;0.0198;0.0046;0.000531;0.736;462
1210;414;0.0198;0.0046;0.000531;0.734;490
1212;414;0.0198;0.0046;0.000534;0.734;490
1214;414;0.0198;0.0046;0.000532;0.732;490
1216;414;0.0198;0.0046;0.000527;0.734;490
1218;414;0.0198;0.0046;0.000532;0.732;378
1220;414;0.0198;0.0046;0.000527;0.731;350
1222;414;0.0198;0.0046;0.000525;0.732;350
1224;414;0.0198;0.0046;0.000532;0.73;350
1226;415;0.0198;0.0046;0.000527;0.728;350
1228;415;0.0198;0.0046;0.000529;0.725;350
1230;415;0.0198;0.0046;0.000534;0.721;350
1232;415;0.0198;0.0046;0.000532;0.72;350
1234;415;0.0198;0.0046;0.000535;0.718;350
1236;415;0.0198;0.0046;0.000538;0.719;350
1238;415;0.0198;0.0046;0.000533;0.719;350
1240;415;0.0198;0.0045;0.000541;0.717;350
1242;415;0.0198;0.0045;0.000542;0.718;434
1244;415;0.0198;0.0046;0.00053;0.715;490
1246;415;0.0198;0.0046;0.000538;0.713;490
1248;415;0.0198;0.0046;0.00054;0.71;490
1250;415;0.0198;0.0046;0.000533;0.706;490
1252;415;0.0198;0.0046;0.000534;0.707;406
1254;415;0.0198;0.0046;0.000529;0.703;350
1256;415;0.0198;0.0046;0.000516;0.704;350
1258;416;0.0198;0.0046;0.000526;0.704;350
1260;416;0.0198;0.0046;0.000522;0.702;350
1262;416;0.0198;0.0046;0.000511;0.703;350
1264;416;0.0198;0.0046;0.000512;0.699;350
1266;416;0.0198;0.0046;0.000516;0.698;350
1268;416;0.0198;0.0046;0.000516;0.697;350
1270;416;0.0198;0.0046;0.000516;0.694;350
1272;416;0.0198;0.0046;0.000509;0.695;350
1274;416;0.0198;0.0046;0.000512;0.692;350
1276;416;0.0198;0.0046;0.000517;0.691;350
1278;416;0.0198;0.0046;0.000516;0.689;343
1280;416;0.0198;0.0046;0.000515;0.688;315
1282;416;0.0198;0.0046;0.000504;0.687;308
1284;416;0.0198;0.0046;0.000506;0.685;378
1286;416;0.0198;0.0046;0.000507;0.684;385
1288;416;0.0198;0.0046;0.000504;0.682;378
1290;416;0.0198;0.0046;0.000498;0.68;364
1292;417;0.0198;0.0046;0.000495;0.68;364
1294;417;0.0198;0.0046;0.000498;0.677;266
1296;417;0.0198;0.0046;0.000498;0.676;224
1298;417;0.0198;0.0046;0.000497;0.674;238
1300;417;0.0198;0.0046;0.000491;0.672;280
1302;417;0.0198;0.0046;0.000494;0.672;294
1304;417;0.0198;0.0046;0.000504;0.669;315
1306;417;0.0198;0.0046;0.0005;0.668;350
1308;417;0.0198;0.0046;0.000494;0.666;350
1310;417;0.0198;0.0046;0.000498;0.664;350
1312;417;0.0198;0.0046;0.000499;0.664;350
1314;417;0.0198;0.0046;0.000501;0.662;350
1316;417;0.0198;0.0046;0.0005;0.661;350
1318;417;0.0198;0.0046;0.000493;0.661;350
1320;417;0.0198;0.0046;0.000493;0.659;490
1322;417;0.0198;0.0046;0.000496;0.661;490
1324;418;0.0198;0.0046;0.000498;0.658;490
1326;418;0.0198;0.0046;0.0005;0.657;490
1328;418;0.0198;0.0046;0.000499;0.655;476
1330;418;0.0198;0.0046;0.000493;0.652;350
1332;418;0.0198;0.0046;0.000493;0.651;350
1334;418;0.0198;0.0046;0.000497;0.648;350
1336;418;0.0198;0.0046;0.000499;0.65;350
1338;418;0.0198;0.0046;0.000497;0.647;350
1340;418;0.0198;0.0046;0.000493;0.644;350
1342;418;0.0198;0.0046;0.000487;0.643;350
1344;418;0.0198;0.0046;0.000492;0.641;350
1346;418;0.0198;0.0046;0.000493;0.641;350
1348;418;0.0198;0.0046;0.000493;0.641;350
1350;418;0.0198;0.0046;0.000493;0.639;350
1352;418;0.0198;0.0046;0.000487;0.64;350
1354;419;0.0198;0.0046;0.000488;0.637;350
1356;419;0.0198;0.0046;0.000488;0.637;350
1358;419;0.0198;0.0046;0.000492;0.637;350
1360;419;0.0198;0.0046;0.000491;0.635;350
1362;419;0.0198;0.0046;0.000483;0.634;350
1364;419;0.0198;0.0046;0.000488;0.627;364
1366;419;0.0198;0.0046;0.000488;0.625;490
1368;419;0.0198;0.0046;0.000485;0.626;490
1370;419;0.0198;0.0046;0.000485;0.624;490
1372;419;0.0198;0.0046;0.000476;0.623;490
1374;419;0.0198;0.0046;0.000479;0.619;476
1376;419;0.0198;0.0046;0.000466;0.617;350
1378;419;0.0198;0.0046;0.000476;0.615;350
1380;418;0.0198;0.0046;0.000467;0.612;350
1382;418;0.0198;0.0046;0.000476;0.613;350
1384;418;0.0198;0.0046;0.000471;0.611;350
1386;418;0.0198;0.0046;0.000472;0.61;350
1388;418;0.0198;0.0046;0.000471;0.608;350
1390;418;0.0198;0.0046;0.000471;0.605;350
1392;418;0.0198;0.0046;0.000471;0.605;350
1394;418;0.0198;0.0046;0.00047;0.601;350
1396;418;0.0198;0.0046;0.000473;0.6;350
1398;418;0.0198;0.0046;0.000474;0.6;350
1400;418;0.0198;0.0046;0.000477;0.597;336
1402;418;0.0198;0.0046;0.000476;0.598;315
1404;418;0.0198;0.0046;0.000475;0.596;343
1406;418;0.0198;0.0046;0.000476;0.594;406
1408;418;0.0198;0.0046;0.000472;0.592;378
1410;419;0.0198;0.0046;0.000475;0.59;364
1412;419;0.0198;0.0046;0.000467;0.588;364
1414;419;0.0198;0.0046;0.000471;0.586;322
1416;419;0.0198;0.0046;0.000463;0.585;217
1418;419;0.0198;0.0046;0.000467;0.584;231
1420;419;0.0198;0.0046;0.000459;0.583;231
1422;419;0.0198;0.0046;0.000461;0.584;245
1424;419;0.0198;0.0046;0.000454;0.58;273
1426;419;0.0198;0.0046;0.000454;0.58;308
1428;419;0.0198;0.0046;0.000449;0.579;322
1430;419;0.0198;0.0046;0.000447;0.578;350
1432;419;0.0198;0.0046;0.000445;0.578;350
1434;419;0.0198;0.0046;0.000442;0.573;350
1436;419;0.0198;0.0046;0.000447;0.57;350
1438;419;0.0198;0.0046;0.000443;0.571;350
1440;419;0.0198;0.0046;0.000443;0.57;350
1442;419;0.0198;0.0046;0.000439;0.57;350
1444;419;0.0198;0.0046;0.000446;0.568;350
1446;420;0.0198;0.0046;0.000437;0.566;350
1448;420;0.0198;0.0046;0.000443;0.566;350
1450;420;0.0198;0.0046;0.000437;0.564;350
1452;420;0.0198;0.0046;0.000443;0.564;448
1454;420;0.0198;0.0046;0.000437;0.561;490
1456;420;0.0198;0.0046;0.000438;0.561;490
1458;420;0.0198;0.0046;0.000434;0.56;490
1460;420;0.0198;0.0046;0.000434;0.556;490
1462;420;0.0198;0.0046;0.000432;0.558;392
1464;420;0.0198;0.0046;0.000426;0.556;350
1466;421;0.0198;0.0046;0.000432;0.556;350
1468;421;0.0198;0.0046;0.000427;0.556;350
1470;421;0.0198;0.0046;0.000433;0.555;350
1472;421;0.0198;0.0046;0.00043;0.554;350
1474;421;0.0198;0.0046;0.000427;0.551;350
1476;421;0.0198;0.0046;0.000432;0.548;350
1478;421;0.0198;0.0046;0.000419;0.547;350
1480;421;0.0198;0.0046;0.000429;0.547;350
1482;422;0.0198;0.0046;0.000417;0.549;350
1484;422;0.0198;0.0046;0.000429;0.548;350
1486;422;0.0198;0.0046;0.000421;0.546;350
1488;422;0.0198;0.0046;0.000428;0.543;350
1490;422;0.0198;0.0046;0.000422;0.541;350
1492;422;0.0198;0.0046;0.000426;0.545;350
1494;422;0.0198;0.0046;0.000419;0.542;350
1496;422;0.0198;0.0046;0.000422;0.542;350
1498;422;0.0198;0.0046;0.000417;0.54;350
1500;423;0.0198;0.0046;0.00042;0.537;406
1502;423;0.0198;0.0047;0.000416;0.537;490
1504;423;0.0198;0.0047;0.000415;0.534;490
1506;423;0.0198;0.0047;0.000414;0.533;490
1508;423;0.0198;0.0047;0.000408;0.533;490
1510;423;0.0198;0.0047;0.00041;0.533;434
1512;423;0.0198;0.0047;0.000401;0.534;350
1514;423;0.0198;0.0047;0.00041;0.532;350
1516;423;0.0198;0.0047;0.0004;0.53;350
1518;423;0.0198;0.0047;0.000411;0.53;350
1520;423;0.0198;0.0047;0.000406;0.527;350
1522;423;0.0198;0.0047;0.000409;0.527;350
1524;423;0.0198;0.0047;0.000403;0.524;308
1526;423;0.0198;0.0047;0.000405;0.522;301
1528;423;0.0198;0.0047;0.000405;0.52;273
1530;424;0.0198;0.0047;0.000399;0.518;231
1532;424;0.0198;0.0047;0.000401;0.519;224
1534;424;0.0198;0.0047;0.000396;0.516;238
1536;424;0.0198;0.0047;0.000402;0.515;210
1538;424;0.0198;0.0047;0.00039;0.515;231
1540;424;0.0198;0.0047;0.000403;0.513;238
1542;424;0.0198;0.0047;0.000391;0.514;210
1544;424;0.0198;0.0047;0.000392;0.513;231
1546;424;0.0198;0.0047;0.000392;0.512;273
1548;424;0.0198;0.0047;0.00039;0.511;273
1550;424;0.0198;0.0047;0.000395;0.507;308
1552;424;0.0198;0.0047;0.000386;0.506;343
1554;424;0.0198;0.0047;0.000389;0.502;350
1556;424;0.0198;0.0047;0.000382;0.501;476
1558;424;0.0198;0.0047;0.000384;0.506;490
1560;424;0.0198;0.0047;0.000382;0.503;490
1562;424;0.0198;0.0047;0.00038;0.503;490
1564;424;0.0198;0.0047;0.000378;0.501;490
1566;424;0.0198;0.0047;0.000379;0.497;350
1568;424;0.0198;0.0047;0.000374;0.494;350
1570;424;0.0198;0.0047;0.000381;0.494;350
1572;424;0.0198;0.0047;0.000365;0.494;350
1574;424;0.0198;0.0047;0.000365;0.49;350
1576;424;0.0198;0.0047;0.000365;0.487;350
1578;424;0.0198;0.0047;0.000365;0.487;350
1580;424;0.0198;0.0047;0.000365;0.484;350
1582;424;0.0198;0.0047;0.000365;0.484;350
1584;424;0.0198;0.0047;0.000365;0.483;350
1586;424;0.0198;0.0047;0.000365;0.482;350
1588;424;0.0198;0.0047;0.000365;0.482;350
1590;424;0.0198;0.0047;0.000365;0.48;350
1592;424;0.0198;0.0047;0.000365;0.479;350
1594;424;0.0198;0.0047;0.000365;0.478;350
1596;424;0.0198;0.0047;0.000365;0.476;350
1598;424;0.0198;0.0047;0.000365;0.476;350
1600;424;0.0198;0.0047;0.000365;0.473;350
1602;424;0.0198;0.0047;0.000365;0.474;350
1604;424;0.0198;0.0047;0.000365;0.47;350
1606;424;0.0198;0.0047;0.000365;0.469;350
1608;424;0.0198;0.0047;0.000365;0.468;350
1610;424;0.0198;0.0047;0.000365;0.466;350
1612;424;0.0198;0.0047;0.000365;0.466;350
1614;424;0.0198;0.0047;0.000365;0.463;392
1616;424;0.0198;0.0047;0.000365;0.462;490
1618;424;0.0198;0.0047;0.000365;0.461;490
1620;425;0.0198;0.0047;0.000365;0.458;490
1622;425;0.0198;0.0047;0.000365;0.458;490
1624;425;0.0198;0.0047;0.000365;0.456;448
1626;425;0.0198;0.0047;0.000365;0.454;350
1628;425;0.0198;0.0047;0.000365;0.454;350
1630;425;0.0198;0.0047;0.000365;0.452;350
1632;425;0.0198;0.0047;0.000365;0.451;343
1634;425;0.0198;0.0047;0.000365;0.449;343
1636;425;0.0198;0.0047;0.000365;0.448;308
1638;425;0.0198;0.0047;0.000365;0.448;273
1640;425;0.0198;0.0047;0.000365;0.446;273
1642;425;0.0198;0.0047;0.000365;0.445;238
1644;425;0.0198;0.0047;0.000365;0.445;210
1646;425;0.0198;0.0047;0.000365;0.442;238
1648;425;0.0198;0.0047;0.000365;0.442;231
1650;425;0.0198;0.0047;0.000365;0.44;210
1652;425;0.0198;0.0047;0.000365;0.439;238
1654;425;0.0198;0.0047;0.000365;0.437;273
1656;425;0.0198;0.0047;0.000365;0.436;273
1658;425;0.0198;0.0047;0.000365;0.436;315
1660;425;0.0198;0.0047;0.000365;0.433;343
1662;425;0.0198;0.0047;0.000365;0.433;350
1664;425;0.0198;0.0047;0.000365;0.432;350
1666;425;0.0198;0.0047;0.000365;0.431;350
1668;425;0.0198;0.0047;0.000365;0.431;350
1670;425;0.0198;0.0047;0.000365;0.427;350
1672;425;0.0198;0.0047;0.000365;0.428;350
1674;425;0.0198;0.0047;0.000365;0.425;350
1676;425;0.0198;0.0047;0.000365;0.422;350
1678;425;0.0198;0.0047;0.000365;0.422;350
1680;425;0.0198;0.0047;0.000365;0.418;350
1682;426;0.0198;0.0047;0.000365;0.42;392
1684;426;0.0198;0.0047;0.000365;0.418;490
1686;426;0.0198;0.0047;0.000365;0.417;490
1688;426;0.0198;0.0047;0.000365;0.417;490
1690;426;0.0198;0.0047;0.000365;0.415;490
1692;426;0.0198;0.0047;0.000365;0.416;448
1694;426;0.0198;0.0047;0.000365;0.413;350
1696;426;0.0198;0.0047;0.000365;0.412;350
1698;426;0.0198;0.0047;0.000365;0.412;350
1700;426;0.0198;0.0047;0.000365;0.408;350
1702;426;0.0198;0.0047;0.000365;0.409;350
1704;426;0.0198;0.0047;0.000365;0.406;350
1706;426;0.0198;0.0047;0.000365;0.404;350
1708;426;0.0198;0.0047;0.000365;0.402;350
1710;426;0.0198;0.0047;0.000365;0.4;350
1712;426;0.0198;0.0047;0.000365;0.401;350
1714;426;0.0198;0.0047;0.000365;0.402;350
1716;426;0.0198;0.0047;0.000365;0.4;350
1718;426;0.0198;0.0047;0.000365;0.401;350
1720;426;0.0198;0.0047;0.000365;0.399;350
1722;426;0.0198;0.0047;0.000365;0.397;350
1724;426;0.0198;0.0047;0.000365;0.395;350
1726;426;0.0198;0.0047;0.000365;0.392;350
1728;426;0.0198;0.0047;0.000365;0.391;350
1730;426;0.0198;0.0047;0.000365;0.388;350
1732;426;0.0198;0.0047;0.000365;0.388;350
1734;426;0.0198;0.0047;0.000365;0.388;350
1736;427;0.0198;0.0047;0.000365;0.388;350
1738;427;0.0198;0.0047;0.000365;0.389;350
1740;427;0.0198;0.0047;0.000365;0.386;315
1742;427;0.0198;0.0047;0.000365;0.385;308
1744;427;0.0198;0.0047;0.000365;0.381;273
1746;427;0.0198;0.0047;0.000365;0.378;245
1748;427;0.0198;0.0047;0.000365;0.378;238
1750;427;0.0198;0.0047;0.000365;0.378;231
1752;427;0.0198;0.0047;0.000365;0.378;217
1754;427;0.0198;0.0047;0.000365;0.376;238
1756;427;0.0198;0.0047;0.000365;0.372;224
1758;427;0.0198;0.0047;0.000365;0.374;217
1760;427;0.0198;0.0047;0.000365;0.373;252
1762;427;0.0198;0.0047;0.000365;0.37;399
1764;427;0.0198;0.0047;0.000365;0.369;413
1766;427;0.0198;0.0047;0.000365;0.368;455
1768;427;0.0198;0.0047;0.000365;0.369;476
1770;427;0.0198;0.0047;0.000365;0.366;462
1772;427;0.0198;0.0047;0.000365;0.366;350
1774;427;0.0198;0.0047;0.000365;0.364;350
1776;427;0.0198;0.0047;0.000365;0.362;350
1778;427;0.0198;0.0047;0.000365;0.363;350
1780;428;0.0198;0.0047;0.000365;0.361;350
1782;428;0.0198;0.0047;0.000365;0.362;350
1784;428;0.0198;0.0047;0.000365;0.361;350
1786;428;0.0198;0.0047;0.000365;0.359;350
1788;428;0.0198;0.0047;0.000365;0.358;350
1790;428;0.0198;0.0047;0.000365;0.355;350
1792;428;0.0198;0.0047;0.000365;0.355;350
1794;428;0.0198;0.0047;0.000365;0.355;350
1796;428;0.0198;0.0047;0.000365;0.353;350
1798;428;0.0198;0.0047;0.000365;0.355;350
1800;428;0.0198;0.0047;0.000365;0.354;350
1802;429;0.0198;0.0047;0.000365;0.355;350
1804;429;0.0198;0.0047;0.000365;0.354;350
1806;429;0.0198;0.0047;0.000365;0.349;350
1808;429;0.0198;0.0047;0.000365;0.349;350
1810;429;0.0198;0.0047;0.000365;0.346;350
1812;429;0.0198;0.0047;0.000365;0.345;350
1814;429;0.0198;0.0047;0.000365;0.346;350
1816;429;0.0198;0.0047;0.000365;0.346;350
1818;429;0.0198;0.0047;0.000365;0.346;350
1820;429;0.0198;0.0047;0.000365;0.343;350
1822;429;0.0198;0.0047;0.000365;0.341;350
1824;430;0.0198;0.0047;0.000365;0.341;350
1826;430;0.0198;0.0047;0.000365;0.341;350
1828;430;0.0198;0.0047;0.000365;0.343;350
1830;430;0.0198;0.0047;0.000365;0.341;350
1832;430;0.0198;0.0047;0.000365;0.34;350
1834;430;0.0198;0.0047;0.000365;0.337;350
1836;430;0.0198;0.0047;0.000365;0.336;350
1838;430;0.0198;0.0047;0.000365;0.338;350
1840;430;0.0198;0.0047;0.000365;0.337;350
1842;431;0.0198;0.0047;0.000365;0.336;350
1844;431;0.0198;0.0047;0.000365;0.334;350
1846;431;0.0198;0.0047;0.000365;0.331;350
1848;431;0.0198;0.0047;0.000365;0.332;350
1850;431;0.0198;0.0047;0.000365;0.331;350
1852;431;0.0198;0.0047;0.000365;0.332;350
1854;431;0.0198;0.0047;0.000365;0.333;350
1856;431;0.0198;0.0047;0.000365;0.332;350
1858;431;0.0198;0.0047;0.000365;0.332;350
1860;431;0.0198;0.0047;0.000365;0.328;322
1862;431;0.0198;0.0047;0.000365;0.326;308
1864;431;0.0198;0.0047;0.000365;0.325;413
1866;432;0.0198;0.0047;0.000365;0.324;392
1868;432;0.0198;0.0047;0.000365;0.325;371
1870;432;0.0198;0.0047;0.000365;0.324;364
1872;432;0.0198;0.0047;0.000365;0.324;350
1874;432;0.0198;0.0047;0.000365;0.324;231
1876;432;0.0198;0.0047;0.000365;0.321;217
1878;432;0.0198;0.0047;0.000365;0.32;231
1880;432;0.0198;0.0047;0.000365;0.316;231
1882;432;0.0198;0.0047;0.000365;0.316;252
1884;432;0.0198;0.0047;0.000365;0.317;273
1886;432;0.0198;0.0047;0.000365;0.316;308
1888;432;0.0198;0.0047;0.000365;0.316;322
1890;432;0.0198;0.0047;0.000365;0.313;350
1892;432;0.0198;0.0047;0.000365;0.31;350
1894;432;0.0198;0.0047;0.000365;0.312;350
1896;432;0.0198;0.0047;0.000365;0.311;350
1898;433;0.0198;0.0047;0.000365;0.313;350
1900;433;0.0198;0.0047;0.000365;0.309;350
1902;433;0.0198;0.0047;0.000365;0.307;350
1904;433;0.0198;0.0047;0.000365;0.308;350
1906;433;0.0198;0.0047;0.000365;0.305;350
1908;433;0.0198;0.0047;0.000365;0.306;350
1910;433;0.0198;0.0047;0.000365;0.304;350
1912;433;0.0198;0.0047;0.000365;0.304;350
1914;433;0.0198;0.0047;0.000365;0.305;350
1916;433;0.0198;0.0047;0.000365;0.304;350
1918;433;0.0198;0.0047;0.000365;0.303;350
1920;433;0.0198;0.0047;0.000365;0.301;350
1922;433;0.0198;0.0047;0.000365;0.298;350
1924;433;0.0198;0.0047;0.000365;0.297;350
1926;433;0.0198;0.0047;0.000365;0.298;350
1928;433;0.0198;0.0047;0.000365;0.301;350
1930;433;0.0198;0.0047;0.000365;0.297;350
1932;434;0.0198;0.0047;0.000365;0.295;350
1934;434;0.0198;0.0047;0.000365;0.293;350
1936;434;0.0198;0.0047;0.000365;0.291;350
1938;434;0.0198;0.0047;0.000365;0.293;350
1940;434;0.0198;0.0047;0.000365;0.292;350
1942;434;0.0198;0.0047;0.000365;0.292;350
1944;434;0.0198;0.0047;0.000365;0.29;350
1946;434;0.0198;0.0047;0.000365;0.285;350
1948;434;0.0198;0.0047;0.000365;0.287;350
1950;434;0.0198;0.0047;0.000365;0.286;350
1952;434;0.0198;0.0047;0.000365;0.285;350
1954;434;0.0198;0.0047;0.000365;0.287;350
1956;434;0.0198;0.0047;0.000365;0.284;350
1958;434;0.0198;0.0047;0.000365;0.284;350
1960;434;0.0198;0.0047;0.000365;0.281;350
1962;434;0.0198;0.0047;0.000365;0.281;350
1964;434;0.0198;0.0047;0.000365;0.28;350
1966;434;0.0198;0.0047;0.000365;0.277;350
1968;434;0.0198;0.0047;0.000365;0.277;350
1970;434;0.0198;0.0047;0.000365;0.275;350
1972;434;0.0198;0.0047;0.000365;0.273;350
1974;434;0.0198;0.0047;0.000365;0.275;350
1976;434;0.0198;0.0047;0.000365;0.275;350
1978;434;0.0198;0.0047;0.000365;0.276;350
1980;434;0.0198;0.0047;0.000365;0.273;329
1982;435;0.0198;0.0047;0.000365;0.272;308
1984;435;0.0198;0.0047;0.000365;0.271;273
1986;435;0.0198;0.0047;0.000365;0.268;259
1988;435;0.0198;0.0047;0.000365;0.268;238
1990;435;0.0198;0.0047;0.000365;0.265;224
1992;435;0.0198;0.0047;0.000365;0.264;231
1994;435;0.0198;0.0047;0.000365;0.263;231
1996;435;0.0198;0.0047;0.000365;0.262;210
1998;435;0.0198;0.0047;0.000365;0.263;231
2000;435;0.0198;0.0047;0.000365;0.262;231
2002;435;0.0198;0.0047;0.000365;0.262;238
2004;435;0.0198;0.0047;0.000365;0.261;266
2006;435;0.0198;0.0047;0.000365;0.26;301
2008;435;0.0198;0.0047;0.000365;0.26;301
2010;435;0.0198;0.0047;0.000365;0.259;343
2012;435;0.0198;0.0047;0.000365;0.258;350
2014;435;0.0198;0.0047;0.000365;0.257;350
2016;436;0.0198;0.0047;0.000365;0.254;350
2018;436;0.0198;0.0047;0.000365;0.253;350
2020;436;0.0198;0.0047;0.000365;0.251;350
2022;436;0.0198;0.0047;0.000365;0.249;350
2024;436;0.0198;0.0047;0.000365;0.25;350
2026;436;0.0198;0.0047;0.000365;0.247;350
2028;436;0.0198;0.0047;0.000365;0.249;350
2030;436;0.0198;0.0047;0.000365;0.25;350
2032;436;0.0198;0.0047;0.000365;0.249;350
2034;436;0.0198;0.0047;0.000365;0.248;350
2036;437;0.0198;0.0047;0.000365;0.244;350
2038;437;0.0198;0.0047;0.000365;0.243;350
2040;437;0.0198;0.0047;0.000365;0.24;350
2042;437;0.0198;0.0047;0.000365;0.241;350
2044;437;0.0198;0.0047;0.000365;0.242;350
2046;437;0.0198;0.0047;0.000365;0.242;350
2048;437;0.0198;0.0047;0.000365;0.241;350
2050;437;0.0198;0.0047;0.000365;0.239;350
2052;438;0.0198;0.0047;0.000365;0.236;350
2054;438;0.0198;0.0047;0.000365;0.239;406
2056;438;0.0198;0.0047;0.000365;0.237;490
2058;438;0.0198;0.0047;0.000365;0.237;490
2060;438;0.0198;0.0047;0.000365;0.235;490
2062;438;0.0198;0.0047;0.000365;0.232;490
2064;438;0.0198;0.0047;0.000365;0.231;434
2066;438;0.0198;0.0047;0.000365;0.229;350
2068;438;0.0198;0.0047;0.000365;0.231;350
2070;439;0.0198;0.0047;0.000365;0.231;350
2072;439;0.0198;0.0047;0.000365;0.229;350
2074;439;0.0198;0.0047;0.000365;0.229;350
2076;439;0.0198;0.0047;0.000365;0.226;350
2078;439;0.0198;0.0047;0.000365;0.226;350
2080;439;0.0198;0.0047;0.000365;0.225;350
2082;439;0.0198;0.0047;0.000365;0.225;350
2084;439;0.0198;0.0047;0.000365;0.225;350
2086;439;0.0198;0.0047;0.000365;0.222;350
2088;440;0.0198;0.0047;0.000365;0.22;350
2090;440;0.0198;0.0047;0.000365;0.219;350
2092;440;0.0198;0.0047;0.000365;0.219;350
2094;440;0.0198;0.0047;0.000365;0.22;350
2096;440;0.0198;0.0047;0.000365;0.218;350
2098;440;0.0198;0.0047;0.000365;0.217;343
2100;440;0.0198;0.0047;0.000365;0.215;336
2102;440;0.0198;0.0047;0.000365;0.215;308
2104;440;0.0198;0.0047;0.000365;0.217;266
2106;440;0.0198;0.0047;0.000365;0.216;266
2108;440;0.0198;0.0047;0.000365;0.214;238
2110;440;0.0198;0.0047;0.000365;0.212;210
2112;441;0.0198;0.0047;0.000365;0.21;231
2114;441;0.0198;0.0047;0.000365;0.211;231
2116;441;0.0198;0.0047;0.000365;0.209;210
2118;441;0.0198;0.0047;0.000365;0.21;231
2120;441;0.0198;0.0047;0.000365;0.21;231
2122;441;0.0198;0.0047;0.000365;0.208;231
2124;441;0.0198;0.0047;0.000365;0.207;273
2126;441;0.0198;0.0047;0.000365;0.204;301
2128;441;0.0198;0.0047;0.000365;0.206;308
2130;441;0.0198;0.0047;0.000365;0.206;350
2132;442;0.0198;0.0047;0.000365;0.204;350
2134;442;0.0198;0.0047;0.000365;0.204;350
2136;442;0.0198;0.0047;0.000365;0.202;350
2138;442;0.0198;0.0047;0.000365;0.2;350
2140;442;0.0198;0.0047;0.000365;0.2;350
2142;442;0.0198;0.0047;0.000365;0.198;350
2144;442;0.0198;0.0047;0.000365;0.198;350
2146;442;0.0198;0.0047;0.000365;0.197;350
2148;442;0.0198;0.0047;0.000365;0.197;350
2150;442;0.0198;0.0047;0.000365;0.198;350
2152;443;0.0198;0.0047;0.000365;0.198;350
2154;443;0.0198;0.0047;0.000365;0.197;350
2156;443;0.0198;0.0047;0.000365;0.194;350
2158;443;0.0198;0.0047;0.000365;0.191;350
2160;443;0.0198;0.0047;0.000365;0.191;350
2162;443;0.0198;0.0047;0.000365;0.188;350
2164;443;0.0198;0.0047;0.000365;0.19;350
2166;443;0.0198;0.0047;0.000365;0.19;350
2168;443;0.0198;0.0047;0.000365;0.189;350
2170;443;0.0198;0.0047;0.000365;0.19;350
2172;444;0.0198;0.0047;0.000365;0.187;350
2174;444;0.0198;0.0047;0.000365;0.187;350
2176;444;0.0198;0.0047;0.000365;0.186;350
2178;444;0.0198;0.0047;0.000365;0.185;350
2180;444;0.0198;0.0047;0.000365;0.185;350
2182;444;0.0198;0.0047;0.000365;0.183;350
2184;444;0.0198;0.0047;0.000365;0.183;350
2186;444;0.0198;0.0047;0.000365;0.181;350
2188;444;0.0198;0.0047;0.000365;0.18;350
2190;444;0.0198;0.0047;0.000365;0.18;350
2192;444;0.0198;0.0047;0.000365;0.178;350
2194;445;0.0198;0.0047;0.000365;0.179;350
2196;445;0.0198;0.0047;0.000365;0.178;350
2198;445;0.0198;0.0047;0.000365;0.177;350
2200;445;0.0198;0.0047;0.000365;0.178;350
2202;445;0.0198;0.0047;0.000365;0.176;350
2204;445;0.0198;0.0047;0.000365;0.177;350
2206;445;0.0198;0.0047;0.000365;0.175;350
2208;445;0.0198;0.0047;0.000365;0.173;350
2210;445;0.0198;0.0047;0.000365;0.172;350
2212;445;0.0198;0.0047;0.000365;0.17;350
2214;445;0.0198;0.0047;0.000365;0.169;350
2216;445;0.0198;0.0047;0.000365;0.168;350
2218;445;0.0198;0.0047;0.000365;0.167;350
2220;445;0.0198;0.0047;0.000365;0.168;350
2222;445;0.0198;0.0047;0.000365;0.167;350
2224;445;0.0198;0.0047;0.000365;0.169;350
2226;445;0.0198;0.0047;0.000365;0.168;350
2228;445;0.0198;0.0047;0.000365;0.168;350
2230;445;0.0198;0.0047;0.000365;0.166;315
2232;445;0.0198;0.0047;0.000365;0.161;308
2234;445;0.0198;0.0047;0.000365;0.161;273
2236;445;0.0198;0.0047;0.000365;0.161;238
2238;446;0.0198;0.0047;0.000365;0.161;231
2240;446;0.0198;0.0047;0.000365;0.161;231
2242;446;0.0198;0.0047;0.000365;0.158;217
2244;446;0.0198;0.0047;0.000365;0.157;231
2246;446;0.0198;0.0047;0.000365;0.157;224
2248;446;0.0198;0.0047;0.000365;0.157;238
2250;446;0.0198;0.0047;0.000365;0.157;273
2252;446;0.0198;0.0047;0.000365;0.154;301
2254;446;0.0198;0.0047;0.000365;0.153;315
2256;446;0.0198;0.0047;0.000365;0.155;350
2258;446;0.0198;0.0047;0.000365;0.153;350
2260;446;0.0198;0.0047;0.000365;0.155;350
2262;446;0.0198;0.0047;0.000365;0.151;350
2264;446;0.0198;0.0047;0.000365;0.15;350
2266;446;0.0198;0.0047;0.000365;0.148;350
2268;446;0.0198;0.0047;0.000365;0.147;350
2270;446;0.0198;0.0047;0.000365;0.149;350
2272;446;0.0198;0.0047;0.000365;0.149;350
2274;446;0.0198;0.0047;0.000365;0.148;350
2276;446;0.0198;0.0047;0.000365;0.147;350
2278;446;0.0198;0.0047;0.000365;0.145;350
2280;446;0.0198;0.0047;0.000365;0.145;350
2282;446;0.0198;0.0047;0.000365;0.142;350
2284;446;0.0198;0.0047;0.000365;0.142;350
2286;446;0.0198;0.0047;0.000365;0.142;350
2288;447;0.0198;0.0047;0.000365;0.141;350
2290;447;0.0198;0.0047;0.000365;0.142;350
2292;447;0.0198;0.0047;0.000365;0.141;350
2294;447;0.0198;0.0047;0.000365;0.142;350
2296;447;0.0198;0.0047;0.000365;0.14;350
2298;447;0.0198;0.0047;0.000365;0.136;350
2300;447;0.0198;0.0047;0.000365;0.134;350
2302;447;0.0198;0.0047;0.000365;0.135;350
2304;447;0.0198;0.0047;0.000365;0.136;350
2306;447;0.0198;0.0047;0.000365;0.135;350
2308;447;0.0198;0.0047;0.000365;0.131;350
2310;447;0.0198;0.0047;0.000365;0.131;350
2312;447;0.0198;0.0047;0.000365;0.129;350
2314;447;0.0198;0.0047;0.000365;0.129;350
2316;447;0.0198;0.0047;0.000365;0.13;350
2318;447;0.0198;0.0047;0.000365;0.128;350
2320;447;0.0198;0.0047;0.000365;0.128;350
2322;447;0.0198;0.0047;0.000365;0.127;350
2324;447;0.0198;0.0047;0.000365;0.126;350
2326;447;0.0198;0.0047;0.000365;0.125;350
2328;447;0.0198;0.0047;0.000365;0.123;350
2330;447;0.0198;0.0047;0.000365;0.124;350
2332;447;0.0198;0.0047;0.000365;0.122;350
2334;447;0.0198;0.0047;0.000365;0.121;350
2336;447;0.0198;0.0047;0.000365;0.122;350
2338;448;0.0198;0.0047;0.000365;0.12;350
2340;448;0.0198;0.0047;0.000365;0.121;350
2342;448;0.0198;0.0047;0.000365;0.12;343
2344;448;0.0198;0.0047;0.000365;0.118;343
2346;448;0.0198;0.0047;0.000365;0.118;322
2348;448;0.0198;0.0047;0.000365;0.116;287
2350;448;0.0198;0.0047;0.000365;0.116;266
2352;448;0.0198;0.0047;0.000365;0.113;252
2354;448;0.0198;0.0047;0.000365;0.111;224
2356;448;0.0198;0.0047;0.000365;0.112;224
2358;448;0.0198;0.0047;0.000365;0.11;231
2360;448;0.0198;0.0047;0.000365;0.111;224
2362;448;0.0198;0.0047;0.000365;0.109;224
2364;448;0.0198;0.0047;0.000365;0.109;245
2366;448;0.0198;0.0047;0.000365;0.111;259
2368;448;0.0198;0.0047;0.000365;0.11;287
2370;448;0.0198;0.0047;0.000365;0.11;322
2372;448;0.0198;0.0047;0.000365;0.105;336
2374;449;0.0198;0.0047;0.000365;0.104;350
2376;449;0.0198;0.0047;0.000365;0.104;350
2378;449;0.0198;0.0047;0.000365;0.104;350
2380;449;0.0198;0.0047;0.000365;0.106;350
2382;449;0.0198;0.0047;0.000365;0.105;350
2384;449;0.0198;0.0047;0.000365;0.103;350
2386;449;0.0198;0.0047;0.000365;0.103;350
2388;449;0.0198;0.0047;0.000365;0.0995;350
2390;449;0.0198;0.0047;0.000365;0.0996;350
2392;449;0.0198;0.0047;0.000365;0.0997;350
2394;449;0.0198;0.0047;0.000365;0.0986;350
2396;449;0.0198;0.0047;0.000365;0.1;350
2398;449;0.0198;0.0047;0.000365;0.0992;350
2400;449;0.0198;0.0047;0.000365;0.0994;350
2402;450;0.0198;0.0047;0.000365;0.0988;350
2404;450;0.0198;0.0047;0.000365;0.0948;350
2406;450;0.0198;0.0047;0.000365;0.0942;350
2408;450;0.0198;0.0047;0.000365;0.0919;350
2410;450;0.0198;0.0047;0.000365;0.0941;350
2412;450;0.0198;0.0047;0.000365;0.0944;350
2414;450;0.0198;0.0047;0.000365;0.0934;350
2416;450;0.0198;0.0047;0.000365;0.0947;350
2418;450;0.0198;0.0047;0.000365;0.0928;350
2420;450;0.0198;0.0047;0.000365;0.0927;350
2422;450;0.0198;0.0047;0.000365;0.0914;350
2424;450;0.0198;0.0047;0.000365;0.0889;350
2426;450;0.0198;0.0047;0.000365;0.0896;350
2428;451;0.0198;0.0047;0.000365;0.0874;350
2430;451;0.0198;0.0047;0.000365;0.0865;350
2432;451;0.0198;0.0047;0.000365;0.0863;350
2434;451;0.0198;0.0047;0.000365;0.0855;350
2436;451;0.0198;0.0047;0.000365;0.0874;350
2438;451;0.0198;0.0047;0.000365;0.0862;350
2440;451;0.0198;0.0047;0.000365;0.0867;350
2442;451;0.0198;0.0047;0.000365;0.0856;350
2444;451;0.0198;0.0047;0.000365;0.0847;350
2446;451;0.0198;0.0047;0.000365;0.0844;350
2448;451;0.0198;0.0047;0.000365;0.0815;350
2450;451;0.0198;0.0047;0.000365;0.0809;350
2452;452;0.0198;0.0047;0.000365;0.0799;350
2454;452;0.0198;0.0047;0.000365;0.078;350
2456;452;0.0198;0.0047;0.000365;0.0797;350
2458;452;0.0198;0.0047;0.000365;0.0773;350
2460;452;0.0198;0.0047;0.000365;0.0816;350
2462;452;0.0198;0.0047;0.000365;0.0812;350
2464;452;0.0198;0.0047;0.000365;0.0794;350
2466;452;0.0198;0.0047;0.000365;0.0785;350
2468;452;0.0198;0.0047;0.000365;0.0746;350
2470;452;0.0198;0.0047;0.000365;0.0733;350
2472;452;0.0198;0.0047;0.000365;0.0731;350
2474;453;0.0198;0.0047;0.000365;0.0717;322
2476;453;0.0198;0.0047;0.000365;0.074;301
2478;453;0.0198;0.0047;0.000365;0.0751;280
2480;453;0.0198;0.0047;0.000365;0.0757;245
2482;453;0.0198;0.0047;0.000365;0.0735;224
2484;453;0.0198;0.0047;0.000365;0.0698;231
2486;453;0.0198;0.0047;0.000365;0.0692;224
2488;453;0.0198;0.0047;0.000365;0.0692;224
2490;453;0.0198;0.0047;0.000365;0.0705;231
2492;453;0.0198;0.0047;0.000365;0.0689;217
2494;453;0.0198;0.0047;0.000365;0.0663;231
2496;453;0.0198;0.0047;0.000365;0.067;245
2498;453;0.0198;0.0047;0.000365;0.0657;259
2500;453;0.0198;0.0047;0.000365;0.0666;287
2502;453;0.0198;0.0047;0.000365;0.0671;322
2504;453;0.0198;0.0047;0.000365;0.0665;329
2506;453;0.0198;0.0047;0.000365;0.0684;350
2508;453;0.0198;0.0047;0.000365;0.0669;350
2510;453;0.0198;0.0047;0.000365;0.0657;350
2512;453;0.0198;0.0047;0.000365;0.0654;350
2514;453;0.0198;0.0047;0.000365;0.0628;350
2516;454;0.0198;0.0047;0.000365;0.0632;350
2518;454;0.0198;0.0047;0.000365;0.0603;350
2520;454;0.0198;0.0047;0.000365;0.0591;350
2522;454;0.0198;0.0047;0.000365;0.059;350
2524;454;0.0198;0.0047;0.000365;0.058;350
2526;454;0.0198;0.0047;0.000365;0.0601;350
2528;454;0.0198;0.0047;0.000365;0.0599;350
2530;454;0.0198;0.0047;0.000365;0.0606;350
2532;454;0.0198;0.0047;0.000365;0.0605;350
2534;454;0.0198;0.0047;0.000365;0.059;350
2536;454;0.0198;0.0047;0.000365;0.0596;350
2538;454;0.0198;0.0047;0.000365;0.056;350
2540;454;0.0198;0.0047;0.000365;0.0539;350
2542;454;0.0198;0.0047;0.000365;0.0539;350
2544;454;0.0198;0.0047;0.000365;0.0523;350
2546;454;0.0198;0.0047;0.000365;0.0537;350
2548;454;0.0198;0.0047;0.000365;0.0536;350
2550;454;0.0198;0.0047;0.000365;0.0531;350
2552;454;0.0198;0.0047;0.000365;0.0548;350
2554;454;0.0198;0.0047;0.000365;0.0542;350
2556;454;0.0198;0.0047;0.000365;0.0546;350
2558;454;0.0198;0.0047;0.000365;0.0518;350
2560;454;0.0198;0.0047;0.000365;0.0499;350
2562;454;0.0198;0.0047;0.000365;0.0485;350
2564;454;0.0198;0.0047;0.000365;0.0474;350
2566;454;0.0198;0.0047;0.000365;0.0495;350
2568;454;0.0198;0.0047;0.000365;0.0501;350
2570;454;0.0198;0.0047;0.000365;0.0512;350
2572;454;0.0198;0.0047;0.000365;0.0503;350
2574;454;0.0198;0.0047;0.000365;0.0447;350
2576;454;0.0198;0.0047;0.000365;0.0471;350
2578;455;0.0198;0.0047;0.000365;0.0479;350
2580;454;0.0198;0.0047;0.000365;0.0457;350
2582;455;0.0198;0.0047;0.000365;0.0461;350
2584;455;0.0198;0.0047;0.000365;0.0438;350
2586;455;0.0198;0.0047;0.000365;0.0433;350
2588;455;0.0198;0.0047;0.000365;0.0443;350
2590;455;0.0198;0.0047;0.000365;0.0437;350
2592;455;0.0198;0.0047;0.000365;0.0443;350
2594;455;0.0198;0.0047;0.000365;0.0405;350
2596;455;0.0198;0.0047;0.000365;0.04;350
2598;456;0.0198;0.0047;0.000365;0.0379;350
2600;456;0.0198;0.0047;0.000365;0.0384;350
2602;456;0.0198;0.0047;0.000365;0.0412;350
2604;456;0.0198;0.0047;0.000365;0.0393;350
2606;456;0.0198;0.0047;0.000365;0.0392;350
2608;456;0.0198;0.0047;0.000365;0.0383;350
2610;456;0.0198;0.0047;0.000365;0.0361;350
2612;456;0.0198;0.0047;0.000365;0.0364;350
2614;456;0.0198;0.0047;0.000365;0.0357;350
2616;456;0.0198;0.0047;0.000365;0.0381;350
2618;456;0.0198;0.0047;0.000365;0.0388;350
2620;457;0.0198;0.0047;0.000365;0.0376;350
2622;457;0.0198;0.0047;0.000365;0.037;350
2624;457;0.0198;0.0047;0.000365;0.0339;350
2626;457;0.0198;0.0047;0.000365;0.0325;350
2628;457;0.0198;0.0047;0.000365;0.0326;350
2630;457;0.0198;0.0047;0.000365;0.032;315
2632;457;0.0198;0.0047;0.000365;0.0343;301
2634;457;0.0198;0.0047;0.000365;0.0332;280
2636;457;0.0198;0.0047;0.000365;0.0347;238
2638;457;0.0198;0.0047;0.000365;0.036;231
2640;457;0.0198;0.0047;0.000365;0.0345;231
2642;457;0.0198;0.0047;0.000365;0.0342;217
2644;457;0.0198;0.0047;0.000365;0.0305;224
2646;457;0.0198;0.0047;0.000365;0.0307;231
2648;458;0.0198;0.0047;0.000365;0.0301;245
2650;458;0.0198;0.0047;0.000365;0.0304;273
2652;458;0.0198;0.0047;0.000365;0.0325;308
2654;458;0.0198;0.0047;0.000365;0.0324;315
2656;458;0.0198;0.0047;0.000365;0.0334;350
2658;458;0.0198;0.0047;0.000365;0.0321;350
2660;458;0.0198;0.0047;0.000365;0.029;350
2662;458;0.0198;0.0047;0.000365;0.0285;350
2664;458;0.0198;0.0047;0.000365;0.0258;350
2666;458;0.0198;0.0047;0.000365;0.0265;350
2668;458;0.0198;0.0047;0.000365;0.0285;350
2670;458;0.0198;0.0047;0.000365;0.027;350
2672;458;0.0198;0.0047;0.000365;0.0281;350
2674;458;0.0198;0.0047;0.000365;0.0265;350
2676;458;0.0198;0.0047;0.000365;0.0249;350
2678;458;0.0198;0.0047;0.000365;0.0225;350
2680;458;0.0198;0.0047;0.000365;0.0202;350
2682;458;0.0198;0.0047;0.000365;0.0218;350
2684;458;0.0198;0.0047;0.000365;0.0202;350
2686;458;0.0198;0.0047;0.000365;0.0193;350
2688;459;0.0198;0.0047;0.000365;0.0203;350
2690;459;0.0198;0.0047;0.000365;0.0181;350
2692;459;0.0198;0.0047;0.000365;0.0193;350
2694;459;0.0198;0.0047;0.000365;0.0168;350
2696;459;0.0198;0.0047;0.000365;0.0153;350
2698;459;0.0198;0.0047;0.000365;0.0139;350
2700;459;0.0198;0.0047;0.000365;0.0113;350
2702;459;0.0198;0.0047;0.000365;0.0111;350
2704;459;0.0198;0.0047;0.000365;0.00927;350
2706;459;0.0198;0.0047;0.000365;0.00903;350
2708;459;0.0198;0.0047;0.000365;0.01;350
2710;459;0.0198;0.0047;0.000365;0.00815;350
2712;459;0.0198;0.0047;0.000365;0.00953;350
2714;459;0.0198;0.0047;0.000365;0.00736;350
2716;459;0.0198;0.0047;0.000365;0.00437;350
2718;459;0.0198;0.0047;0.000365;0.00331;350
2720;459;0.0198;0.0047;0.000365;0.000835;350
2722;459;0.0198;0.0047;0.000365;0.00259;350
2724;459;0.0198;0.0047;0.000365;0.00143;350
2726;460;0.0198;0.0047;0.000365;0.00176;350
2728;460;0.0198;0.0047;0.000365;0.00156;350
2730;460;0.0198;0.0047;0.000365;0;350
2732;460;0.0198;0.0047;0.000365;0;350
2734;460;0.0198;0.0047;0.000365;0;350
2736;460;0.0198;0.0047;0.000365;0;350
2738;460;0.0198;0.0047;0.000365;0;350
2740;460;0.0198;0.0047;0.000365;0;350
2742;460;0.0198;0.0047;0.000365;0;350
2744;460;0.0198;0.0047;0.000365;0;350
2746;460;0.0198;0.0047;0.000365;0;350
2748;460;0.0198;0.0047;0.000365;0;350
2750;460;0.0198;0.0047;0.000365;0;350
2752;460;0.0198;0.0047;0.000365;0;350
2754;460;0.0198;0.0047;0.000365;0;350
2756;460;0.0198;0.0047;0.000365;0;350
2758;460;0.0198;0.0047;0.000365;0;350
2760;461;0.0198;0.0047;0.000365;0;350
2762;461;0.0198;0.0047;0.000365;0;350
2764;461;0.0198;0.0047;0.000365;0;350
2766;461;0.0198;0.0047;0.000365;0;350
2768;461;0.0198;0.0047;0.000365;0;350
2770;461;0.0198;0.0047;0.000365;0;350
2772;461;0.0198;0.0047;0.000365;0;350
2774;461;0.0198;0.0047;0.000365;0;350
2776;461;0.0198;0.0047;0.000365;0;343
2778;461;0.0198;0.0047;0.000365;0;322
2780;461;0.0198;0.0047;0.000365;0;280
2782;461;0.0198;0.0047;0.000365;0;273
2784;461;0.0198;0.0047;0.000365;0;245
2786;461;0.0198;0.0047;0.000365;0;210
2788;461;0.0198;0.0047;0.000365;0;231
2790;461;0.0198;0.0047;0.000365;0;238
2792;461;0.0198;0.0047;0.000365;0;210
2794;461;0.0198;0.0047;0.000365;0;231
2796;461;0.0198;0.0047;0.000365;0;273
2798;461;0.0198;0.0047;0.000365;0;280
2800;461;0.0198;0.0047;0.000365;0;308
2802;461;0.0198;0.0047;0.000365;0;350
2804;461;0.0198;0.0047;0.000365;0;350
2806;461;0.0198;0.0047;0.000365;0;350
2808;461;0.0198;0.0047;0.000365;0;350
2810;461;0.0198;0.0047;0.000365;0;350
2812;461;0.0198;0.0047;0.000365;0;350
2814;462;0.0198;0.0047;0.000365;0;350
2816;462;0.0198;0.0047;0.000365;0;350
2818;462;0.0198;0.0047;0.000365;0;350
2820;462;0.0198;0.0047;0.000365;0;350
2822;462;0.0198;0.0047;0.000365;0;350
2824;462;0.0198;0.0047;0.000365;0;350
2826;462;0.0198;0.0047;0.000365;0;350
2828;462;0.0198;0.0047;0.000365;0;350
2830;462;0.0198;0.0047;0.000365;0;350
2832;462;0.0198;0.0047;0.000365;0;350
2834;462;0.0198;0.0047;0.000365;0;350
2836;462;0.0198;0.0047;0.000365;0;350
2838;462;0.0198;0.0047;0.000365;0;350
2840;462;0.0198;0.0047;0.000365;0;350
2842;462;0.0198;0.0047;0.000365;0;350
2844;462;0.0198;0.0047;0.000365;0;350
2846;462;0.0198;0.0047;0.000365;0;350
2848;462;0.0198;0.0047;0.000365;0;350
2850;462;0.0198;0.0047;0.000365;0;350
2852;462;0.0198;0.0047;0.000365;0;350
2854;462;0.0198;0.0047;0.000365;0;350
2856;462;0.0198;0.0047;0.000365;0;350
2858;462;0.0198;0.0047;0.000365;0;350
2860;462;0.0198;0.0047;0.000365;0;350
2862;462;0.0198;0.0047;0.000365;0;350
2864;462;0.0198;0.0047;0.000365;0;350
2866;462;0.0198;0.0047;0.000365;0;350
2868;462;0.0198;0.0047;0.000365;0;350
2870;462;0.0198;0.0047;0.000365;0;350
2872;462;0.0198;0.0047;0.000365;0;350
2874;462;0.0198;0.0047;0.000365;0;350
2876;462;0.0198;0.0047;0.000365;0;350
2878;462;0.0198;0.0047;0.000365;0.00169;350
2880;462;0.0198;0.0047;0.000365;0.000881;350
2882;462;0.0198;0.0047;0.000365;0.000882;350
2884;463;0.0198;0.0047;0.000365;0.000535;350
2886;463;0.0198;0.0047;0.000365;0;350
2888;463;0.0198;0.0047;0.000365;0;350
2890;463;0.0198;0.0047;0.000365;0;350
2892;463;0.0198;0.0047;0.000365;0.00185;350
2894;463;0.0198;0.0047;0.000365;0.00205;350
2896;463;0.0198;0.0047;0.000365;0.00111;350
2898;463;0.0198;0.0047;0.000365;0.00224;350
2900;463;0.0198;0.0047;0.000365;0;350
2902;463;0.0198;0.0047;0.000365;0;350
2904;463;0.0198;0.0047;0.000365;0;350
2906;463;0.0198;0.0047;0.000365;0;350
2908;463;0.0198;0.0047;0.000365;0;350
2910;463;0.0198;0.0047;0.000365;0;350
2912;463;0.0198;0.0047;0.000365;0;350
2914;463;0.0198;0.0047;0.000365;0;350
2916;463;0.0198;0.0047;0.000365;0;350
2918;463;0.0198;0.0047;0.000365;0;315
2920;463;0.0198;0.0047;0.000365;0;308
2922;463;0.0198;0.0047;0.000365;0;273
2924;463;0.0198;0.0047;0.000365;0;238
2926;463;0.0198;0.0047;0.000365;0;231
2928;463;0.0198;0.0047;0.000365;0;238
2930;463;0.0198;0.0047;0.000365;0;210
2932;463;0.0198;0.0047;0.000365;0;238
2934;463;0.0198;0.0047;0.000365;0;238
2936;463;0.0198;0.0047;0.000365;0;238
2938;463;0.0198;0.0047;0.000365;0;273
2940;464;0.0198;0.0047;0.000365;0;315
2942;464;0.0198;0.0047;0.000365;0;315
2944;464;0.0198;0.0047;0.000365;0;350
2946;464;0.0198;0.0047;0.000365;0;350
2948;464;0.0198;0.0047;0.000365;0;350
2950;464;0.0198;0.0047;0.000365;0;350
2952;464;0.0198;0.0047;0.000365;0;350
2954;464;0.0198;0.0047;0.000365;0;350
2956;464;0.0198;0.0047;0.000365;0;350
2958;464;0.0198;0.0047;0.000365;0;350
2960;464;0.0198;0.0047;0.000365;0;350
2962;463;0.0198;0.0047;0.000365;0;350
2964;463;0.0198;0.0047;0.000365;0;350
2966;463;0.0198;0.0047;0.000365;0;350
2968;463;0.0198;0.0047;0.000365;0;350
2970;464;0.0198;0.0047;0.000365;0;350
2972;464;0.0198;0.0047;0.000365;0;350
2974;464;0.0198;0.0047;0.000365;0;350
2976;464;0.0198;0.0047;0.000365;0;350
2978;463;0.0198;0.0047;0.000365;0;350
2980;463;0.0198;0.0047;0.000365;0;350
2982;463;0.0198;0.0047;0.000365;0;350
2984;463;0.0198;0.0047;0.000365;0;350
2986;463;0.0198;0.0047;0.000365;0;350
2988;463;0.0198;0.0047;0.000365;0;350
2990;463;0.0198;0.0047;0.000365;0;350
2992;463;0.0198;0.0047;0.000365;0;350
2994;463;0.0198;0.0047;0.000365;0;350
2996;463;0.0198;0.0047;0.000365;0;350
2998;463;0.0198;0.0047;0.000365;0;350
3000;463;0.0198;0.0047;0.000365;0;350
3002;463;0.0198;0.0047;0.000365;0;350
3004;463;0.0198;0.0047;0.000365;0.000136;350
3006;463;0.0198;0.0047;0.000365;0.00018;350
3008;463;0.0198;0.0047;0.000365;0.00304;350
3010;463;0.0198;0.0047;0.000365;0.00336;350
3012;463;0.0198;0.0047;0.000365;0.00407;350
3014;463;0.0198;0.0047;0.000365;0.00698;350
3016;463;0.0198;0.0047;0.000365;0.00625;350
3018;463;0.0198;0.0047;0.000365;0.00822;350
3020;463;0.0198;0.0047;0.000365;0.00715;350
3022;463;0.0198;0.0047;0.000365;0.00602;350
3024;463;0.0198;0.0047;0.000365;0.00648;350
3026;463;0.0198;0.0047;0.000365;0.0049;350
3028;463;0.0198;0.0047;0.000365;0.00506;350
3030;463;0.0198;0.0047;0.000365;0.0054;350
3032;463;0.0198;0.0047;0.000365;0.00512;350
3034;463;0.0198;0.0047;0.000365;0.00643;350
3036;463;0.0198;0.0047;0.000365;0.00651;350
3038;463;0.0198;0.0047;0.000365;0.00827;350
3040;462;0.0198;0.0047;0.000365;0.00798;350
3042;462;0.0198;0.0047;0.000365;0.0117;350
3044;462;0.0198;0.0047;0.000365;0.0131;350
3046;462;0.0198;0.0047;0.000365;0.0109;350
3048;462;0.0198;0.0047;0.000365;0.00943;350
3050;462;0.0198;0.0047;0.000365;0.00992;350
3052;462;0.0198;0.0047;0.000365;0.0104;350
3054;462;0.0198;0.0047;0.000365;0.00995;350
3056;462;0.0198;0.0047;0.000365;0.00687;350
3058;462;0.0198;0.0047;0.000365;0.00802;350
3060;462;0.0198;0.0047;0.000365;0.00993;350
3062;462;0.0198;0.0047;0.000365;0.00998;350
3064;462;0.0198;0.0047;0.000365;0.0118;350
3066;462;0.0198;0.0047;0.000365;0.00984;350
3068;461;0.0198;0.0047;0.000365;0.00975;350
3070;461;0.0198;0.0047;0.000365;0.00794;350
3072;461;0.0198;0.0047;0.000365;0.00783;350
3074;461;0.0198;0.0047;0.000365;0.01;350
3076;461;0.0198;0.0047;0.000365;0.0101;350
3078;461;0.0198;0.0047;0.000365;0.0119;350
3080;461;0.0198;0.0047;0.000365;0.0125;350
3082;461;0.0198;0.0043;0.00079;0.012;350
3084;461;0.0198;0.0043;0.000792;0.0132;350
3086;461;0.0198;0.0043;0.000778;0.0107;350
3088;461;0.0198;0.0043;0.00079;0.0107;350
3090;461;0.0198;0.0043;0.000791;0.00998;350
3092;461;0.0198;0.0043;0.000786;0.00923;350
3094;461;0.0198;0.0043;0.000791;0.012;350
3096;461;0.0198;0.0043;0.000792;0.0116;350
3098;461;0.0198;0.0043;0.000779;0.0137;350
3100;460;0.0198;0.0043;0.000783;0.0139;350
3102;460;0.0198;0.0044;0.000775;0.0142;350
3104;460;0.0198;0.0044;0.000763;0.0159;350
3106;460;0.0198;0.0044;0.000768;0.0137;350
3108;460;0.0198;0.0044;0.000758;0.0126;350
3110;460;0.0198;0.0044;0.000743;0.0123;350
3112;460;0.0198;0.0044;0.000734;0.011;350
3114;460;0.0198;0.0044;0.000724;0.0133;350
3116;460;0.0198;0.0044;0.000702;0.0128;350
3118;460;0.0198;0.0044;0.000706;0.0138;350
3120;460;0.0198;0.0044;0.000691;0.0158;350
3122;460;0.0198;0.0044;0.000679;0.016;350
3124;460;0.0198;0.0044;0.000672;0.0174;350
3126;460;0.0198;0.0045;0.000658;0.0155;350
3128;460;0.0198;0.0045;0.000649;0.0144;350
3130;460;0.0198;0.0045;0.000641;0.0134;350
3132;460;0.0198;0.0045;0.000624;0.014;350
3134;460;0.0198;0.0045;0.000621;0.0174;350
3136;460;0.0198;0.0045;0.00061;0.0165;350
3138;460;0.0198;0.0045;0.000588;0.0156;350
3140;460;0.0198;0.0045;0.00059;0.0153;350
3142;460;0.0198;0.0045;0.000582;0.0136;350
3144;460;0.0198;0.0045;0.000567;0.0164;350
3146;460;0.0198;0.0045;0.000562;0.0167;350
3148;460;0.0198;0.0045;0.000541;0.0169;350
3150;460;0.0198;0.0045;0.000546;0.0164;350
3152;460;0.0198;0.0046;0.000528;0.0141;350
3154;460;0.0198;0.0046;0.000525;0.0172;343
3156;460;0.0198;0.0046;0.000512;0.0175;315
3158;459;0.0198;0.0046;0.000501;0.0166;294
3160;459;0.0198;0.0046;0.000496;0.0174;294
3162;459;0.0198;0.0046;0.000488;0.0157;266
3164;459;0.0198;0.0046;0.000479;0.0185;273
3166;459;0.0198;0.0046;0.00047;0.0191;301
3168;459;0.0198;0.0046;0.000465;0.0197;322
3170;459;0.0198;0.0046;0.000464;0.022;322
3172;459;0.0198;0.0046;0.000454;0.0208;350
3174;459;0.0198;0.0046;0.000452;0.0207;350
3176;459;0.0198;0.0046;0.000445;0.0193;350
3178;459;0.0198;0.0046;0.000443;0.0177;350
3180;459;0.0198;0.0046;0.000437;0.0195;350
3182;459;0.0198;0.0046;0.000427;0.0193;350
3184;459;0.0198;0.0046;0.000428;0.0225;350
3186;459;0.0198;0.0047;0.000415;0.0221;350
3188;459;0.0198;0.0047;0.000409;0.0227;350
3190;459;0.0198;0.0047;0.000412;0.0245;350
3192;459;0.0198;0.0047;0.000404;0.0207;350
3194;459;0.0198;0.0047;0.000396;0.0195;350
3196;459;0.0198;0.0047;0.000398;0.0214;350
3198;459;0.0198;0.0047;0.000388;0.0234;350
3200;458;0.0198;0.0047;0.000386;0.0241;350
3202;458;0.0198;0.0047;0.000386;0.0225;350
3204;458;0.0198;0.0047;0.000379;0.0227;350
3206;458;0.0198;0.0047;0.000375;0.0225;350
3208;458;0.0198;0.0047;0.000377;0.0229;350
3210;458;0.0198;0.0047;0.000369;0.0258;350
3212;458;0.0198;0.0047;0.000367;0.0261;350
3214;458;0.0198;0.0047;0.000369;0.0273;350
3216;458;0.0198;0.0047;0.000365;0.0248;350
3218;458;0.0198;0.0047;0.000363;0.0232;350
3220;458;0.0198;0.0047;0.000368;0.0271;350
3222;458;0.0198;0.0047;0.000367;0.027;350
3224;458;0.0198;0.0047;0.000361;0.0283;350
3226;458;0.0198;0.0047;0.000361;0.0276;350
3228;458;0.0198;0.0047;0.000364;0.0271;350
3230;458;0.0198;0.0047;0.000364;0.0283;350
3232;458;0.0198;0.0047;0.000358;0.0267;350
3234;458;0.0198;0.0047;0.000354;0.0275;350
3236;458;0.0198;0.0047;0.000362;0.0284;350
3238;458;0.0198;0.0047;0.00036;0.0282;350
3240;458;0.0198;0.0047;0.000356;0.0302;350
3242;458;0.0198;0.0047;0.00035;0.0296;350
3244;458;0.0198;0.0047;0.000353;0.0316;350
3246;458;0.0198;0.0047;0.00035;0.0313;350
3248;458;0.0198;0.0047;0.000346;0.0317;350
3250;458;0.0198;0.0047;0.000344;0.0337;350
3252;458;0.0198;0.0047;0.000343;0.0328;350
3254;458;0.0198;0.0047;0.000345;0.0346;350
3256;458;0.0198;0.0047;0.000345;0.0349;350
3258;458;0.0198;0.0047;0.000344;0.0337;350
3260;458;0.0198;0.0047;0.000339;0.0344;350
3262;458;0.0198;0.0047;0.000337;0.0324;350
3264;458;0.0198;0.0047;0.000338;0.0318;350
3266;458;0.0198;0.0047;0.000343;0.0323;350
3268;458;0.0198;0.0047;0.000343;0.0306;350
3270;458;0.0198;0.0047;0.000347;0.0332;350
3272;458;0.0198;0.0047;0.000341;0.033;350
3274;458;0.0198;0.0047;0.000335;0.0362;350
3276;458;0.0198;0.0047;0.000331;0.0373;350
3278;458;0.0198;0.0047;0.00033;0.0362;350
3280;458;0.0198;0.0047;0.000336;0.0375;350
3282;458;0.0198;0.0047;0.000338;0.0356;350
3284;458;0.0198;0.0047;0.000337;0.0357;350
3286;458;0.0198;0.0047;0.000334;0.0367;350
3288;458;0.0198;0.0047;0.000337;0.0362;350
3290;458;0.0198;0.0047;0.000332;0.0382;350
3292;458;0.0198;0.0047;0.000329;0.0384;350
3294;458;0.0198;0.0047;0.000324;0.0386;350
3296;458;0.0198;0.0047;0.000334;0.0403;350
3298;458;0.0198;0.0047;0.000338;0.0389;350
3300;458;0.0198;0.0047;0.000338;0.04;350
3302;458;0.0198;0.0047;0.000335;0.0389;350
3304;458;0.0198;0.0047;0.000334;0.0397;350
3306;458;0.0198;0.0047;0.000336;0.0401;350
3308;458;0.0198;0.0047;0.000333;0.04;350
3310;458;0.0198;0.0047;0.000329;0.0422;350
3312;458;0.0198;0.0047;0.000329;0.0411;350
3314;458;0.0198;0.0047;0.000327;0.0421;350
3316;458;0.0198;0.0047;0.000329;0.0431;350
3318;458;0.0198;0.0047;0.000333;0.0432;350
3320;458;0.0198;0.0047;0.000332;0.0451;350
3322;458;0.0198;0.0047;0.000335;0.0453;350
3324;458;0.0198;0.0047;0.000332;0.0452;350
3326;458;0.0198;0.0047;0.000332;0.0459;350
3328;458;0.0198;0.0047;0.00033;0.0449;350
3330;458;0.0198;0.0047;0.000329;0.0466;350
3332;458;0.0198;0.0047;0.000327;0.0447;350
3334;458;0.0198;0.0047;0.000325;0.0459;350
3336;458;0.0198;0.0047;0.000325;0.0462;350
3338;458;0.0198;0.0047;0.000324;0.0462;350
3340;458;0.0198;0.0047;0.000323;0.0482;350
3342;458;0.0198;0.0047;0.00032;0.0479;350
3344;458;0.0198;0.0047;0.000317;0.0488;350
3346;458;0.0198;0.0047;0.000314;0.0491;350
3348;458;0.0198;0.0047;0.000313;0.0491;350
3350;458;0.0198;0.0047;0.000317;0.0517;350
3352;458;0.0198;0.0047;0.000323;0.0514;350
3354;458;0.0198;0.0047;0.000325;0.0523;350
3356;458;0.0198;0.0047;0.000326;0.0537;350
3358;458;0.0198;0.0047;0.000327;0.0521;350
3360;458;0.0198;0.0047;0.000324;0.0533;350
3362;458;0.0198;0.0047;0.000323;0.0519;350
3364;458;0.0198;0.0047;0.000322;0.0525;350
3366;458;0.0198;0.0047;0.000322;0.0516;350
3368;458;0.0198;0.0047;0.000326;0.0512;350
3370;458;0.0198;0.0047;0.000323;0.0513;350
3372;458;0.0198;0.0047;0.000321;0.0512;350
3374;458;0.0198;0.0047;0.000321;0.051;350
3376;458;0.0198;0.0047;0.00032;0.0529;350
3378;458;0.0198;0.0047;0.000319;0.0522;350
3380;458;0.0198;0.0047;0.000315;0.0541;350
3382;458;0.0198;0.0047;0.000318;0.0532;350
3384;458;0.0198;0.0047;0.000319;0.0541;350
3386;458;0.0198;0.0047;0.000323;0.0553;350
3388;458;0.0198;0.0047;0.000326;0.0557;350
3390;458;0.0198;0.0047;0.000326;0.0571;350
3392;458;0.0198;0.0047;0.000328;0.0562;350
3394;458;0.0198;0.0047;0.000332;0.0559;350
3396;458;0.0198;0.0047;0.000332;0.0565;350
3398;458;0.0198;0.0047;0.000333;0.0552;350
3400;458;0.0198;0.0047;0.000333;0.056;350
3402;458;0.0198;0.0047;0.000335;0.054;350
3404;458;0.0198;0.0047;0.000335;0.0546;350
3406;458;0.0198;0.0047;0.000333;0.0561;350
3408;458;0.0198;0.0047;0.000325;0.0547;350
3410;458;0.0198;0.0047;0.000325;0.057;350
3412;458;0.0198;0.0047;0.000325;0.0561;350
3414;458;0.0198;0.0047;0.000324;0.0576;350
3416;458;0.0198;0.0047;0.000325;0.0589;350
3418;458;0.0198;0.0047;0.000324;0.0596;350
3420;458;0.0198;0.0047;0.000323;0.0613;350
3422;458;0.0198;0.0047;0.000321;0.0613;350
3424;458;0.0198;0.0047;0.00032;0.0611;350
3426;458;0.0198;0.0047;0.000319;0.0615;350
3428;458;0.0198;0.0047;0.000317;0.0585;350
3430;458;0.0198;0.0047;0.000316;0.0594;350
3432;458;0.0198;0.0047;0.000314;0.058;350
3434;458;0.0198;0.0047;0.000313;0.0581;350
3436;458;0.0198;0.0047;0.000315;0.0602;350
3438;458;0.0198;0.0047;0.000318;0.0597;350
3440;458;0.0198;0.0047;0.000323;0.0618;350
3442;458;0.0198;0.0047;0.000322;0.0622;350
3444;458;0.0198;0.0047;0.000324;0.063;350
3446;458;0.0198;0.0047;0.000323;0.0638;350
3448;458;0.0198;0.0047;0.000318;0.063;350
3450;458;0.0198;0.0047;0.000315;0.0633;350
3452;458;0.0198;0.0047;0.000317;0.0615;350
3454;458;0.0198;0.0047;0.000319;0.0605;350
3456;458;0.0198;0.0047;0.000323;0.0616;350
3458;458;0.0198;0.0047;0.000324;0.0608;350
3460;458;0.0198;0.0047;0.000321;0.063;350
3462;458;0.0198;0.0047;0.000323;0.0625;350
3464;458;0.0198;0.0047;0.000328;0.0632;350
3466;458;0.0198;0.0047;0.000322;0.0656;350
3468;458;0.0198;0.0047;0.000329;0.0654;350
3470;458;0.0198;0.0047;0.000327;0.0662;350
3472;458;0.0198;0.0047;0.000329;0.0669;350
3474;458;0.0198;0.0047;0.000335;0.0657;350
3476;458;0.0198;0.0047;0.000332;0.0671;350
3478;458;0.0198;0.0047;0.000332;0.0641;350
3480;458;0.0198;0.0047;0.000335;0.0649;350
3482;458;0.0198;0.0047;0.00033;0.0644;350
3484;458;0.0198;0.0047;0.000331;0.0643;350
3486;458;0.0198;0.0047;0.000335;0.0654;350
3488;458;0.0198;0.0047;0.000326;0.0657;350
3490;458;0.0198;0.0047;0.000335;0.0672;350
3492;458;0.0198;0.0047;0.000336;0.0678;350
3494;458;0.0198;0.0047;0.000328;0.0688;350
3496;458;0.0198;0.0047;0.000336;0.0707;350
3498;458;0.0198;0.0047;0.000332;0.0702;350
3500;458;0.0198;0.0047;0.00033;0.0713;350
3502;458;0.0198;0.0047;0.000333;0.07;350
3504;458;0.0198;0.0047;0.000324;0.0688;350
3506;458;0.0198;0.0047;0.00033;0.0685;350
3508;458;0.0198;0.0047;0.000327;0.0675;350
3510;458;0.0198;0.0047;0.000328;0.0691;350
3512;458;0.0198;0.0047;0.000326;0.0694;350
3514;458;0.0198;0.0047;0.000333;0.0697;350
3516;458;0.0198;0.0047;0.000331;0.0722;350
3518;458;0.0198;0.0047;0.000328;0.0714;350
3520;458;0.0198;0.0047;0.000328;0.0736;350
3522;458;0.0198;0.0047;0.000328;0.0748;350
3524;458;0.0198;0.0047;0.000328;0.0755;350
3526;457;0.0198;0.0047;0.000326;0.0766;350
3528;457;0.0198;0.0047;0.000328;0.0758;350
3530;458;0.0198;0.0047;0.000327;0.0761;350
3532;457;0.0198;0.0047;0.00033;0.0745;350
3534;457;0.0198;0.0047;0.000325;0.0737;350
3536;457;0.0198;0.0047;0.000327;0.0755;350
3538;457;0.0198;0.0047;0.000322;0.0747;350
3540;457;0.0198;0.0047;0.000326;0.0765;350
3542;457;0.0198;0.0047;0.000327;0.0772;350
3544;457;0.0198;0.0047;0.000322;0.0774;350
3546;457;0.0198;0.0047;0.000328;0.0802;350
3548;457;0.0198;0.0047;0.000324;0.0803;350
3550;457;0.0198;0.0047;0.000328;0.0824;350
3552;457;0.0198;0.0047;0.000329;0.0824;350
3554;457;0.0198;0.0047;0.000321;0.0811;350
3556;457;0.0198;0.0047;0.000324;0.0821;350
3558;457;0.0198;0.0047;0.000316;0.0805;350
3560;457;0.0198;0.0047;0.000324;0.0807;350
3562;457;0.0198;0.0047;0.000317;0.0814;350
3564;457;0.0198;0.0047;0.000319;0.0817;350
3566;457;0.0198;0.0047;0.000321;0.0849;350
3568;457;0.0198;0.0047;0.000316;0.0852;350
3570;457;0.0198;0.0047;0.000317;0.0879;350
3572;457;0.0198;0.0047;0.00031;0.0879;350
3574;457;0.0198;0.0047;0.000316;0.086;350
3576;457;0.0198;0.0047;0.000311;0.0857;350
3578;457;0.0198;0.0047;0.00032;0.0834;350
3580;457;0.0198;0.0047;0.000317;0.0865;350
3582;457;0.0198;0.0047;0.000328;0.0881;350
3584;457;0.0198;0.0047;0.000325;0.0904;350
3586;457;0.0198;0.0047;0.000326;0.0927;350
3588;457;0.0198;0.0047;0.000331;0.0889;350
3590;456;0.0198;0.0047;0.000327;0.0884;350
3592;456;0.0198;0.0047;0.000332;0.0908;350
3594;456;0.0198;0.0047;0.000336;0.0923;350
3596;456;0.0198;0.0047;0.000336;0.0925;350
3598;456;0.0198;0.0047;0.000337;0.0889;350
3600;456;0.0198;0.0047;0.000336;0.0937;350
3602;456;0.0198;0.0047;0.000334;0.0936;350
3604;456;0.0198;0.0047;0.000338;0.0935;350
3606;456;0.0198;0.0047;0.000333;0.0925;350
3608;456;0.0198;0.0047;0.000336;0.0938;350
3610;456;0.0198;0.0047;0.00033;0.0975;350
3612;456;0.0198;0.0047;0.000336;0.0975;350
3614;456;0.0198;0.0047;0.000329;0.0989;350
3616;456;0.0198;0.0047;0.000333;0.0997;350
3618;456;0.0198;0.0047;0.000327;0.0976;350
3620;456;0.0198;0.0047;0.000329;0.0968;350
3622;456;0.0198;0.0047;0.000321;0.0997;350
3624;456;0.0198;0.0047;0.000323;0.102;350
3626;456;0.0198;0.0047;0.000318;0.103;350
3628;456;0.0198;0.0047;0.000321;0.102;350
3630;456;0.0198;0.0047;0.000319;0.104;350
3632;456;0.0198;0.0047;0.000318;0.105;350
3634;456;0.0198;0.0047;0.000323;0.105;350
3636;456;0.0198;0.0047;0.000316;0.106;350
3638;456;0.0198;0.0047;0.000323;0.106;350
3640;456;0.0198;0.0047;0.000318;0.107;350
3642;456;0.0198;0.0047;0.000324;0.107;350
3644;456;0.0198;0.0047;0.000325;0.107;350
3646;456;0.0198;0.0047;0.000328;0.108;350
3648;456;0.0198;0.0047;0.000325;0.108;350
3650;455;0.0198;0.0047;0.000329;0.109;350
3652;455;0.0198;0.0047;0.000324;0.11;350
3654;456;0.0198;0.0047;0.000324;0.109;350
3656;455;0.0198;0.0047;0.000324;0.111;350
3658;455;0.0198;0.0047;0.000316;0.111;350
3660;455;0.0198;0.0047;0.000325;0.113;350
3662;456;0.0198;0.0047;0.000315;0.113;350
3664;455;0.0198;0.0047;0.000326;0.112;350
3666;455;0.0198;0.0047;0.000319;0.113;350
3668;455;0.0198;0.0047;0.000326;0.112;350
3670;455;0.0198;0.0047;0.00032;0.114;350
3672;455;0.0198;0.0047;0.000324;0.113;350
3674;455;0.0198;0.0047;0.000327;0.113;350
3676;455;0.0198;0.0047;0.000319;0.115;350
3678;455;0.0198;0.0047;0.000327;0.114;350
3680;455;0.0198;0.0047;0.000323;0.115;350
3682;455;0.0198;0.0047;0.000317;0.116;350
3684;455;0.0198;0.0047;0.000324;0.116;350
3686;455;0.0198;0.0047;0.000324;0.118;350
3688;455;0.0198;0.0047;0.000317;0.118;350
3690;455;0.0198;0.0047;0.000322;0.119;350
3692;455;0.0198;0.0047;0.000318;0.119;350
3694;454;0.0198;0.0047;0.000322;0.119;350
3696;454;0.0198;0.0047;0.000324;0.121;350
3698;454;0.0198;0.0047;0.000318;0.121;350
3700;454;0.0198;0.0047;0.00032;0.122;350
3702;454;0.0198;0.0047;0.000317;0.123;350
3704;454;0.0198;0.0047;0.000322;0.121;350
3706;454;0.0198;0.0047;0.000315;0.121;350
3708;454;0.0198;0.0047;0.000328;0.119;350
3710;454;0.0198;0.0047;0.000317;0.121;350
3712;454;0.0198;0.0047;0.000324;0.122;350
3714;454;0.0198;0.0047;0.000319;0.124;350
3716;454;0.0198;0.0047;0.000325;0.125;350
3718;454;0.0198;0.0047;0.000321;0.126;350
3720;454;0.0198;0.0047;0.000329;0.128;350
3722;454;0.0198;0.0047;0.000324;0.128;350
3724;454;0.0198;0.0047;0.000329;0.126;350
3726;454;0.0198;0.0047;0.000328;0.127;350
3728;454;0.0198;0.0047;0.000322;0.128;350
3730;454;0.0198;0.0047;0.00033;0.126;350
3732;454;0.0198;0.0047;0.000325;0.126;350
3734;454;0.0198;0.0047;0.000323;0.126;350
3736;454;0.0198;0.0047;0.000327;0.13;350
3738;454;0.0198;0.0047;0.000324;0.13;350
3740;453;0.0198;0.0047;0.000325;0.131;350
3742;453;0.0198;0.0047;0.000328;0.132;350
3744;453;0.0198;0.0047;0.000323;0.133;350
3746;453;0.0198;0.0047;0.000328;0.134;350
3748;453;0.0198;0.0047;0.000331;0.132;350
3750;453;0.0198;0.0047;0.000325;0.133;350
3752;453;0.0198;0.0047;0.000329;0.133;350
3754;453;0.0198;0.0047;0.000332;0.133;350
3756;453;0.0198;0.0047;0.000328;0.136;350
3758;453;0.0198;0.0047;0.000334;0.136;350
3760;453;0.0198;0.0047;0.000331;0.138;350
3762;453;0.0198;0.0047;0.000329;0.139;350
3764;453;0.0198;0.0047;0.000329;0.14;350
3766;453;0.0198;0.0047;0.000331;0.143;350
3768;453;0.0198;0.0047;0.000326;0.142;350
3770;453;0.0198;0.0047;0.000329;0.144;350
3772;453;0.0198;0.0047;0.000331;0.143;350
3774;453;0.0198;0.0047;0.000323;0.144;350
3776;453;0.0198;0.0047;0.000324;0.145;350
3778;453;0.0198;0.0047;0.000324;0.144;350
3780;453;0.0198;0.0047;0.000316;0.145;350
3782;453;0.0198;0.0047;0.000318;0.146;350
3784;453;0.0198;0.0047;0.000316;0.146;350
3786;453;0.0198;0.0047;0.000312;0.148;350
3788;453;0.0198;0.0047;0.000308;0.149;350
3790;453;0.0198;0.0047;0.000312;0.151;350
3792;453;0.0198;0.0047;0.000313;0.152;350
3794;453;0.0198;0.0047;0.000306;0.153;350
3796;453;0.0198;0.0047;0.00031;0.154;350
3798;453;0.0198;0.0047;0.000318;0.152;350
3800;453;0.0198;0.0047;0.000318;0.152;350
3802;453;0.0198;0.0047;0.000314;0.154;350
3804;453;0.0198;0.0047;0.000322;0.156;350
3806;453;0.0198;0.0047;0.000327;0.157;350
3808;453;0.0198;0.0047;0.000325;0.154;350
3810;453;0.0198;0.0047;0.000324;0.158;350
3812;453;0.0198;0.0047;0.000327;0.16;350
3814;453;0.0198;0.0047;0.000328;0.159;350
3816;453;0.0198;0.0047;0.000323;0.161;350
3818;453;0.0198;0.0047;0.000327;0.16;350
3820;453;0.0198;0.0047;0.000327;0.161;350
3822;453;0.0198;0.0047;0.000323;0.162;350
3824;453;0.0198;0.0047;0.000328;0.162;350
3826;453;0.0198;0.0047;0.000328;0.164;350
3828;453;0.0198;0.0047;0.000325;0.162;350
3830;453;0.0198;0.0047;0.00033;0.164;350
3832;453;0.0198;0.0047;0.000333;0.165;350
3834;453;0.0198;0.0047;0.000325;0.165;350
3836;453;0.0198;0.0047;0.000329;0.168;350
3838;453;0.0198;0.0047;0.000331;0.167;350
3840;453;0.0198;0.0047;0.000321;0.169;350
3842;453;0.0198;0.0047;0.000326;0.169;350
3844;453;0.0198;0.0047;0.000328;0.168;350
3846;453;0.0198;0.0047;0.000321;0.17;350
3848;453;0.0198;0.0047;0.000325;0.169;350
3850;453;0.0198;0.0047;0.000326;0.171;350
3852;453;0.0198;0.0047;0.000322;0.171;350
3854;453;0.0198;0.0047;0.000319;0.17;350
3856;453;0.0198;0.0047;0.000323;0.172;350
3858;453;0.0198;0.0047;0.000328;0.172;350
3860;453;0.0198;0.0047;0.000323;0.174;350
3862;453;0.0198;0.0047;0.000329;0.176;350
3864;453;0.0198;0.0047;0.000332;0.177;350
3866;453;0.0198;0.0047;0.000332;0.177;350
3868;453;0.0198;0.0047;0.000326;0.175;350
3870;453;0.0198;0.0047;0.000328;0.178;350
3872;453;0.0198;0.0047;0.000334;0.179;350
3874;453;0.0198;0.0047;0.000333;0.179;350
3876;453;0.0198;0.0047;0.000328;0.18;350
3878;453;0.0198;0.0047;0.000328;0.178;350
3880;453;0.0198;0.0047;0.000329;0.181;350
3882;453;0.0198;0.0047;0.000329;0.183;350
3884;453;0.0198;0.0047;0.000328;0.182;350
3886;453;0.0198;0.0047;0.000321;0.184;350
3888;453;0.0198;0.0047;0.000327;0.184;350
3890;453;0.0198;0.0047;0.000321;0.185;350
3892;453;0.0198;0.0047;0.000328;0.186;350
3894;453;0.0198;0.0047;0.000331;0.185;350
3896;454;0.0198;0.0047;0.000326;0.187;350
3898;454;0.0198;0.0047;0.000331;0.186;350
3900;454;0.0198;0.0047;0.00032;0.188;350
3902;454;0.0198;0.0047;0.000331;0.19;350
3904;454;0.0198;0.0047;0.00033;0.191;350
3906;454;0.0198;0.0047;0.000329;0.193;350
3908;454;0.0198;0.0047;0.00033;0.194;350
3910;454;0.0198;0.0047;0.000324;0.193;350
3912;454;0.0198;0.0047;0.000325;0.194;350
3914;454;0.0198;0.0047;0.000319;0.193;350
3916;454;0.0198;0.0047;0.00032;0.195;350
3918;454;0.0198;0.0047;0.000322;0.195;350
3920;454;0.0198;0.0047;0.000319;0.196;350
3922;454;0.0198;0.0047;0.000322;0.197;350
3924;454;0.0198;0.0047;0.00032;0.198;350
3926;454;0.0198;0.0047;0.000317;0.2;350
3928;454;0.0198;0.0047;0.000321;0.2;350
3930;454;0.0198;0.0047;0.000315;0.201;350
3932;454;0.0198;0.0047;0.000321;0.202;350
3934;454;0.0198;0.0047;0.000323;0.202;350
3936;454;0.0198;0.0047;0.000313;0.204;350
3938;454;0.0198;0.0047;0.000322;0.203;350
3940;453;0.0198;0.0047;0.000319;0.204;350
3942;453;0.0198;0.0047;0.000312;0.205;350
3944;453;0.0198;0.0047;0.00032;0.204;350
3946;453;0.0198;0.0047;0.000321;0.206;350
3948;453;0.0198;0.0047;0.000314;0.205;350
3950;453;0.0198;0.0047;0.00032;0.205;350
3952;453;0.0198;0.0047;0.000319;0.208;350
3954;453;0.0198;0.0047;0.00031;0.208;350
3956;453;0.0198;0.0047;0.000315;0.21;350
3958;453;0.0198;0.0047;0.00032;0.21;350
3960;453;0.0198;0.0047;0.000313;0.21;350
3962;453;0.0198;0.0047;0.000314;0.212;350
3964;453;0.0198;0.0047;0.000322;0.212;350
3966;453;0.0198;0.0047;0.000321;0.214;350
3968;453;0.0198;0.0047;0.000311;0.214;350
3970;453;0.0198;0.0047;0.000314;0.214;350
3972;453;0.0198;0.0047;0.000321;0.214;350
3974;453;0.0198;0.0047;0.000317;0.215;350
3976;453;0.0198;0.0047;0.000311;0.216;350
3978;453;0.0198;0.0047;0.000315;0.217;350
3980;453;0.0198;0.0047;0.000318;0.216;350
3982;453;0.0198;0.0047;0.000317;0.22;350
3984;453;0.0198;0.0047;0.000309;0.219;350
3986;453;0.0198;0.0047;0.000311;0.221;350
3988;453;0.0198;0.0047;0.000319;0.221;350
3990;453;0.0198;0.0047;0.000314;0.222;350
3992;453;0.0198;0.0047;0.000315;0.223;350
3994;453;0.0198;0.0047;0.000322;0.223;350
3996;452;0.0198;0.0047;0.000314;0.225;350
3998;452;0.0198;0.0047;0.000323;0.225;350
4000;452;0.0198;0.0047;0.000323;0.225;350
4002;452;0.0198;0.0047;0.00032;0.226;350
4004;452;0.0198;0.0047;0.000324;0.225;350
4006;452;0.0198;0.0047;0.000321;0.227;350
4008;452;0.0198;0.0047;0.000321;0.226;350
4010;452;0.0198;0.0047;0.000324;0.226;350
4012;452;0.0198;0.0047;0.000318;0.228;350
4014;452;0.0198;0.0047;0.000321;0.228;350
4016;452;0.0198;0.0047;0.000318;0.23;350
4018;452;0.0198;0.0047;0.000308;0.23;350
4020;452;0.0198;0.0047;0.000314;0.231;350
4022;452;0.0198;0.0047;0.000314;0.233;350
4024;452;0.0198;0.0047;0.000314;0.233;350
4026;452;0.0198;0.0047;0.000315;0.235;350
4028;452;0.0198;0.0047;0.000316;0.235;350
4030;452;0.0198;0.0047;0.000314;0.235;350
4032;452;0.0198;0.0047;0.000313;0.237;350
4034;452;0.0198;0.0047;0.00031;0.235;350
4036;452;0.0198;0.0047;0.000307;0.236;350
4038;452;0.0198;0.0047;0.000309;0.237;350
4040;452;0.0198;0.0047;0.00031;0.237;350
4042;452;0.0198;0.0047;0.000315;0.24;350
4044;452;0.0198;0.0047;0.000316;0.239;350
4046;452;0.0198;0.0047;0.000319;0.24;350
4048;452;0.0198;0.0047;0.000317;0.241;350
4050;452;0.0198;0.0047;0.000318;0.242;350
4052;452;0.0198;0.0047;0.000318;0.245;350
4054;451;0.0198;0.0047;0.00032;0.245;350
4056;451;0.0198;0.0047;0.00032;0.246;350
4058;451;0.0198;0.0047;0.000321;0.247;350
4060;451;0.0198;0.0047;0.000321;0.247;350
4062;451;0.0198;0.0047;0.000319;0.249;350
4064;451;0.0198;0.0047;0.000318;0.249;350
4066;451;0.0198;0.0047;0.000317;0.248;350
4068;451;0.0198;0.0047;0.00032;0.248;350
4070;451;0.0198;0.0047;0.00032;0.25;350
4072;451;0.0198;0.0047;0.000321;0.252;350
4074;451;0.0198;0.0047;0.000321;0.251;350
4076;451;0.0198;0.0047;0.000322;0.254;350
4078;451;0.0198;0.0047;0.000319;0.253;350
4080;451;0.0198;0.0047;0.000319;0.253;350
4082;451;0.0198;0.0047;0.000317;0.256;350
4084;451;0.0198;0.0047;0.000318;0.255;350
4086;451;0.0198;0.0047;0.000319;0.256;350
4088;451;0.0198;0.0047;0.000317;0.257;350
4090;451;0.0198;0.0047;0.000314;0.258;350
4092;450;0.0198;0.0047;0.000312;0.261;350
4094;450;0.0198;0.0047;0.000311;0.26;350
4096;450;0.0198;0.0047;0.000309;0.262;350
4098;450;0.0198;0.0047;0.000307;0.261;350
4100;450;0.0198;0.0047;0.000306;0.26;350
4102;450;0.0198;0.0047;0.000303;0.262;350
4104;450;0.0198;0.0047;0.000302;0.261;350
4106;450;0.0198;0.0047;0.000304;0.263;350
4108;450;0.0198;0.0047;0.000308;0.263;350
4110;450;0.0198;0.0047;0.000309;0.263;350
4112;449;0.0198;0.0047;0.000309;0.266;350
4114;449;0.0198;0.0047;0.00031;0.266;350
4116;449;0.0198;0.0047;0.000308;0.267;350
4118;450;0.0198;0.0047;0.000306;0.268;350
4120;449;0.0198;0.0047;0.000306;0.268;350
4122;449;0.0198;0.0047;0.000304;0.27;350
4124;449;0.0198;0.0047;0.000303;0.269;350
4126;449;0.0198;0.0047;0.000308;0.27;350
4128;449;0.0198;0.0047;0.000309;0.27;350
4130;449;0.0198;0.0047;0.000309;0.27;350
4132;449;0.0198;0.0047;0.000309;0.271;350
4134;449;0.0198;0.0047;0.000307;0.27;350
4136;449;0.0198;0.0047;0.000303;0.272;350
4138;449;0.0198;0.0047;0.000301;0.273;350
4140;449;0.0198;0.0047;0.000309;0.273;350
4142;449;0.0198;0.0047;0.000309;0.274;350
4144;449;0.0198;0.0047;0.000309;0.274;350
4146;449;0.0198;0.0047;0.000305;0.275;350
4148;449;0.0198;0.0047;0.000302;0.276;350
4150;449;0.0198;0.0047;0.000299;0.276;350
4152;449;0.0198;0.0047;0.000306;0.278;350
4154;449;0.0198;0.0047;0.000306;0.278;350
4156;449;0.0198;0.0047;0.000306;0.278;350
4158;448;0.0198;0.0047;0.000304;0.279;350
4160;448;0.0198;0.0047;0.000305;0.277;350
4162;448;0.0198;0.0047;0.00031;0.278;350
4164;448;0.0198;0.0047;0.000311;0.277;350
4166;448;0.0198;0.0047;0.000311;0.278;350
4168;448;0.0198;0.0047;0.000306;0.279;350
4170;448;0.0198;0.0047;0.000302;0.28;350
4172;448;0.0198;0.0047;0.00031;0.282;350
4174;448;0.0198;0.0047;0.000313;0.281;350
4176;448;0.0198;0.0047;0.00031;0.283;350
4178;448;0.0198;0.0047;0.000304;0.284;350
4180;448;0.0198;0.0047;0.000301;0.283;350
4182;448;0.0198;0.0047;0.000302;0.284;350
4184;448;0.0198;0.0047;0.000307;0.283;350
4186;448;0.0198;0.0047;0.000305;0.283;350
4188;448;0.0198;0.0047;0.000309;0.284;350
4190;448;0.0198;0.0047;0.000301;0.283;350
4192;448;0.0198;0.0047;0.000308;0.285;350
4194;448;0.0198;0.0047;0.000304;0.284;350
4196;448;0.0198;0.0047;0.000307;0.286;350
4198;448;0.0198;0.0047;0.000304;0.287;350
4200;448;0.0198;0.0047;0.000309;0.287;350
4202;448;0.0198;0.0047;0.000306;0.29;350
4204;448;0.0198;0.0047;0.000306;0.288;350
4206;448;0.0198;0.0047;0.000306;0.287;350
4208;448;0.0198;0.0047;0.000302;0.286;350
4210;448;0.0198;0.0047;0.000307;0.287;350
4212;448;0.0198;0.0047;0.0003;0.29;350
4214;448;0.0198;0.0047;0.000307;0.288;350
4216;448;0.0198;0.0047;0.000304;0.288;350
4218;448;0.0198;0.0047;0.000308;0.288;350
4220;448;0.0198;0.0047;0.000302;0.287;350
4222;448;0.0198;0.0047;0.000304;0.29;350
4224;448;0.0198;0.0047;0.000301;0.29;350
4226;448;0.0198;0.0047;0.000304;0.291;350
4228;448;0.0198;0.0047;0.000296;0.29;350
4230;448;0.0198;0.0047;0.000302;0.288;350
4232;448;0.0198;0.0047;0.000297;0.288;350
4234;448;0.0198;0.0047;0.0003;0.289;350
4236;448;0.0198;0.0047;0.000293;0.29;350
4238;448;0.0198;0.0047;0.000298;0.293;350
4240;448;0.0198;0.0047;0.000291;0.291;350
4242;448;0.0198;0.0047;0.000296;0.292;350
4244;448;0.0198;0.0047;0.00029;0.29;350
4246;448;0.0198;0.0047;0.000294;0.29;350
4248;448;0.0198;0.0047;0.000299;0.291;350
4250;448;0.0198;0.0047;0.000297;0.292;350
4252;448;0.0198;0.0047;0.000299;0.294;350
4254;448;0.0198;0.0047;0.000297;0.291;350
4256;448;0.0198;0.0047;0.000301;0.291;350
4258;448;0.0198;0.0047;0.000296;0.293;350
4260;447;0.0198;0.0047;0.000302;0.294;350
4262;447;0.0198;0.0047;0.000298;0.295;350
4264;447;0.0198;0.0047;0.000301;0.294;350
4266;447;0.0198;0.0047;0.000301;0.295;350
4268;448;0.0198;0.0047;0.000296;0.295;350
4270;448;0.0198;0.0047;0.000301;0.295;350
4272;448;0.0198;0.0047;0.000294;0.296;350
4274;447;0.0198;0.0047;0.000303;0.296;350
4276;447;0.0198;0.0047;0.000298;0.295;350
4278;447;0.0198;0.0047;0.000303;0.297;350
4280;447;0.0198;0.0047;0.000303;0.296;350
4282;447;0.0198;0.0047;0.000296;0.298;350
4284;447;0.0198;0.0047;0.000302;0.297;350
4286;447;0.0198;0.0047;0.000303;0.298;350
4288;447;0.0198;0.0047;0.000298;0.299;350
4290;447;0.0198;0.0047;0.000301;0.298;350
4292;447;0.0198;0.0047;0.000303;0.3;350
4294;447;0.0198;0.0047;0.000295;0.3;350
4296;447;0.0198;0.0047;0.000302;0.3;350
4298;447;0.0198;0.0047;0.000301;0.301;350
4300;447;0.0198;0.0047;0.000298;0.301;350
4302;447;0.0198;0.0047;0.000301;0.302;350
4304;447;0.0198;0.0047;0.000303;0.301;350
4306;447;0.0198;0.0047;0.000293;0.301;350
4308;447;0.0198;0.0047;0.000301;0.301;350
4310;447;0.0198;0.0047;0.000301;0.301;350
4312;447;0.0198;0.0047;0.000296;0.302;350
4314;447;0.0198;0.0047;0.000295;0.302;350
4316;447;0.0198;0.0047;0.0003;0.303;350
4318;447;0.0198;0.0047;0.000291;0.305;350
4320;447;0.0198;0.0047;0.000294;0.307;350
4322;447;0.0198;0.0047;0.000296;0.308;350
4324;447;0.0198;0.0047;0.00029;0.304;350
4326;447;0.0198;0.0047;0.000291;0.302;350
4328;447;0.0198;0.0047;0.000294;0.304;350
4330;447;0.0198;0.0047;0.000293;0.304;350
4332;447;0.0198;0.0048;0.000288;0.306;350
4334;447;0.0198;0.0047;0.000292;0.305;350
4336;447;0.0198;0.0047;0.000293;0.303;350
4338;447;0.0198;0.0047;0.000295;0.304;350
4340;447;0.0198;0.0047;0.000293;0.304;350
4342;447;0.0198;0.0048;0.000283;0.306;350
4344;447;0.0198;0.0047;0.000293;0.306;350
4346;447;0.0198;0.0047;0.000293;0.306;350
4348;447;0.0198;0.0047;0.000294;0.308;350
4350;447;0.0198;0.0047;0.000292;0.307;350
4352;447;0.0198;0.0048;0.00028;0.307;350
4354;447;0.0198;0.0048;0.000287;0.306;350
4356;447;0.0198;0.0048;0.000287;0.306;350
4358;447;0.0198;0.0047;0.00029;0.308;350
4360;447;0.0198;0.0047;0.00029;0.308;350
4362;447;0.0198;0.0048;0.000288;0.31;350
4364;447;0.0198;0.0048;0.000284;0.31;350
4366;447;0.0198;0.0048;0.000283;0.311;350
4368;447;0.0198;0.0048;0.000282;0.311;350
4370;447;0.0198;0.0048;0.000285;0.31;350
4372;447;0.0198;0.0047;0.000289;0.311;350
4374;447;0.0198;0.0048;0.000287;0.31;350
4376;447;0.0198;0.0048;0.000285;0.31;350
4378;447;0.0198;0.0048;0.000285;0.312;350
4380;447;0.0198;0.0048;0.000285;0.311;350
4382;446;0.0198;0.0048;0.000289;0.312;350
4384;447;0.0198;0.0048;0.000288;0.312;350
4386;447;0.0198;0.0047;0.00029;0.312;350
4388;447;0.0198;0.0048;0.000289;0.314;350
4390;447;0.0198;0.0048;0.000285;0.312;350
4392;446;0.0198;0.0048;0.000287;0.313;350
4394;446;0.0198;0.0048;0.000289;0.315;350
4396;446;0.0198;0.0047;0.000291;0.314;350
4398;446;0.0198;0.0047;0.000295;0.316;350
4400;446;0.0198;0.0047;0.000294;0.315;350
4402;446;0.0198;0.0047;0.000295;0.317;350
4404;446;0.0198;0.0047;0.00029;0.318;350
4406;446;0.0198;0.0047;0.000296;0.317;350
4408;446;0.0198;0.0047;0.000295;0.319;350
4410;446;0.0198;0.0047;0.000294;0.318;350
4412;446;0.0198;0.0048;0.000289;0.32;350
4414;446;0.0198;0.0047;0.00029;0.318;350
4416;446;0.0198;0.0048;0.000289;0.317;350
4418;446;0.0198;0.0047;0.00029;0.319;350
4420;446;0.0198;0.0047;0.000293;0.318;350
4422;446;0.0198;0.0047;0.000292;0.32;350
4424;446;0.0198;0.0047;0.000294;0.322;350
4426;446;0.0198;0.0047;0.00029;0.323;350
4428;446;0.0198;0.0048;0.000287;0.324;350
4430;446;0.0198;0.0047;0.000292;0.321;350
4432;446;0.0198;0.0047;0.000294;0.321;350
4434;446;0.0198;0.0047;0.000298;0.322;350
4436;446;0.0198;0.0047;0.000301;0.323;350
4438;446;0.0198;0.0047;0.000301;0.324;350
4440;446;0.0198;0.0047;0.000302;0.324;350
4442;446;0.0198;0.0047;0.0003;0.324;350
4444;446;0.0198;0.0047;0.000297;0.323;350
4446;446;0.0198;0.0047;0.000294;0.323;350
4448;446;0.0198;0.0047;0.000298;0.326;350
4450;446;0.0198;0.0047;0.000295;0.325;350
4452;446;0.0198;0.0047;0.000295;0.327;350
4454;446;0.0198;0.0047;0.000293;0.327;350
4456;446;0.0198;0.0047;0.000297;0.327;350
4458;446;0.0198;0.0047;0.000293;0.33;350
4460;446;0.0198;0.0047;0.000293;0.327;350
4462;446;0.0198;0.0047;0.000297;0.328;350
4464;446;0.0198;0.0047;0.000295;0.328;350
4466;446;0.0198;0.0047;0.000303;0.328;350
4468;446;0.0198;0.0047;0.000292;0.331;350
4470;446;0.0198;0.0047;0.000294;0.331;350
4472;446;0.0198;0.0047;0.000296;0.332;350
4474;446;0.0198;0.0047;0.000291;0.333;350
4476;446;0.0198;0.0047;0.000292;0.332;350
4478;446;0.0198;0.0047;0.000291;0.334;350
4480;446;0.0198;0.0047;0.000295;0.333;350
4482;446;0.0198;0.0047;0.000293;0.334;350
4484;446;0.0198;0.0047;0.000295;0.333;350
4486;446;0.0198;0.0047;0.000295;0.332;350
4488;446;0.0198;0.0047;0.000293;0.335;350
4490;446;0.0198;0.0047;0.00029;0.335;350
4492;446;0.0198;0.0047;0.000294;0.337;350
4494;446;0.0198;0.0047;0.000295;0.338;350
4496;446;0.0198;0.0047;0.000293;0.337;350
4498;446;0.0198;0.0047;0.000293;0.339;350
4500;446;0.0198;0.0047;0.000295;0.338;350
4502;446;0.0198;0.0047;0.00029;0.339;350
4504;446;0.0198;0.0047;0.000296;0.34;350
4506;446;0.0198;0.0047;0.000296;0.339;350
4508;446;0.0198;0.0047;0.000295;0.34;350
4510;446;0.0198;0.0047;0.000296;0.339;350
4512;446;0.0198;0.0047;0.000296;0.34;350
4514;446;0.0198;0.0047;0.000297;0.341;350
4516;446;0.0198;0.0047;0.000299;0.341;350
4518;446;0.0198;0.0047;0.000291;0.343;350
4520;446;0.0198;0.0047;0.000291;0.342;350
4522;446;0.0198;0.0047;0.000291;0.343;350
4524;446;0.0198;0.0047;0.000291;0.344;350
4526;446;0.0198;0.0047;0.000293;0.344;350
4528;446;0.0198;0.0047;0.000295;0.346;350
4530;446;0.0198;0.0047;0.000295;0.345;350
4532;446;0.0198;0.0047;0.000294;0.347;350
4534;446;0.0198;0.0047;0.000296;0.347;350
4536;446;0.0198;0.0047;0.000296;0.345;350
4538;446;0.0198;0.0047;0.000297;0.348;350
4540;446;0.0198;0.0047;0.000298;0.346;350
4542;446;0.0198;0.0047;0.0003;0.347;350
4544;446;0.0198;0.0047;0.000297;0.348;350
4546;446;0.0198;0.0047;0.0003;0.347;350
4548;446;0.0198;0.0047;0.000296;0.349;350
4550;446;0.0198;0.0047;0.000295;0.348;350
4552;446;0.0198;0.0047;0.000295;0.348;350
4554;446;0.0198;0.0047;0.000295;0.349;350
4556;446;0.0198;0.0047;0.000295;0.348;350
4558;446;0.0198;0.0047;0.000293;0.35;350
4560;446;0.0198;0.0047;0.000293;0.349;350
4562;446;0.0198;0.0047;0.000293;0.351;350
4564;446;0.0198;0.0047;0.000294;0.351;350
4566;446;0.0198;0.0047;0.000289;0.35;350
4568;446;0.0198;0.0047;0.00029;0.352;350
4570;446;0.0198;0.0047;0.00029;0.351;350
4572;446;0.0198;0.0047;0.000295;0.352;350
4574;446;0.0198;0.0047;0.000292;0.353;350
4576;446;0.0198;0.0047;0.0003;0.352;350
4578;446;0.0198;0.0047;0.000299;0.354;350
4580;446;0.0198;0.0047;0.000302;0.354;350
4582;446;0.0198;0.0047;0.000302;0.355;350
4584;446;0.0198;0.0047;0.000305;0.354;350
4586;446;0.0198;0.0047;0.000303;0.355;350
4588;446;0.0198;0.0047;0.000301;0.357;350
4590;446;0.0198;0.0047;0.000299;0.356;350
4592;446;0.0198;0.0047;0.000299;0.357;350
4594;446;0.0198;0.0047;0.000299;0.358;350
4596;446;0.0198;0.0047;0.000299;0.356;350
4598;446;0.0198;0.0047;0.000299;0.359;350
4600;446;0.0198;0.0047;0.000299;0.357;350
4602;446;0.0198;0.0047;0.000299;0.359;350
4604;446;0.0198;0.0047;0.000299;0.36;350
4606;446;0.0198;0.0047;0.000299;0.359;350
4608;446;0.0198;0.0047;0.000299;0.36;350
4610;446;0.0198;0.0047;0.000299;0.361;350
4612;446;0.0198;0.0047;0.000299;0.361;350
4614;446;0.0198;0.0047;0.000299;0.362;350
4616;446;0.0198;0.0047;0.000299;0.362;350
4618;446;0.0198;0.0047;0.000299;0.364;350
4620;446;0.0198;0.0047;0.000299;0.363;350
4622;446;0.0198;0.0047;0.000299;0.364;350
4624;446;0.0198;0.0047;0.000299;0.365;350
4626;446;0.0198;0.0047;0.000299;0.365;350
4628;446;0.0198;0.0047;0.000299;0.366;350
4630;446;0.0198;0.0047;0.000299;0.365;350
4632;446;0.0198;0.0047;0.000299;0.365;350
4634;446;0.0198;0.0047;0.000299;0.366;350
4636;446;0.0198;0.0047;0.000299;0.364;350
4638;446;0.0198;0.0047;0.000299;0.366;350
4640;446;0.0198;0.0047;0.000299;0.365;350
4642;446;0.0198;0.0047;0.000299;0.365;350
4644;446;0.0198;0.0047;0.000299;0.367;350
4646;446;0.0198;0.0047;0.000299;0.368;350
4648;446;0.0198;0.0047;0.000299;0.37;350
4650;446;0.0198;0.0047;0.000299;0.37;350
4652;446;0.0198;0.0047;0.000299;0.371;350
4654;446;0.0198;0.0047;0.000299;0.371;350
4656;446;0.0198;0.0047;0.000299;0.369;350
4658;446;0.0198;0.0047;0.000299;0.37;350
4660;446;0.0198;0.0047;0.000299;0.369;350
4662;446;0.0198;0.0047;0.000299;0.369;350
4664;446;0.0198;0.0047;0.000299;0.374;350
4666;446;0.0198;0.0047;0.000299;0.373;350
4668;446;0.0198;0.0047;0.000299;0.373;350
4670;446;0.0198;0.0047;0.000299;0.373;350
4672;446;0.0198;0.0047;0.000299;0.374;350
4674;446;0.0198;0.0047;0.000299;0.375;350
4676;446;0.0198;0.0047;0.000299;0.373;350
4678;446;0.0198;0.0047;0.000299;0.374;350
4680;446;0.0198;0.0047;0.000299;0.373;350
4682;446;0.0198;0.0047;0.000299;0.373;350
4684;446;0.0198;0.0047;0.000299;0.377;350
4686;446;0.0198;0.0047;0.000299;0.376;350
4688;446;0.0198;0.0047;0.000299;0.376;350
4690;446;0.0198;0.0047;0.000299;0.374;350
4692;446;0.0198;0.0047;0.000299;0.374;350
4694;446;0.0198;0.0047;0.000299;0.376;350
4696;446;0.0198;0.0047;0.000299;0.376;350
4698;446;0.0198;0.0047;0.000299;0.377;350
4700;446;0.0198;0.0047;0.000299;0.376;350
4702;446;0.0198;0.0047;0.000299;0.375;350
4704;446;0.0198;0.0047;0.000299;0.376;350
4706;446;0.0198;0.0047;0.000299;0.375;350
4708;446;0.0198;0.0047;0.000299;0.376;350
4710;446;0.0198;0.0047;0.000299;0.376;350
4712;446;0.0198;0.0047;0.000299;0.377;350
4714;446;0.0198;0.0047;0.000299;0.379;350
4716;446;0.0198;0.0047;0.000299;0.377;350
4718;446;0.0198;0.0047;0.000299;0.38;350
4720;446;0.0198;0.0047;0.000299;0.379;350
4722;446;0.0198;0.0047;0.000299;0.379;350
4724;446;0.0198;0.0047;0.000299;0.38;350
4726;446;0.0198;0.0047;0.000299;0.38;350
4728;446;0.0198;0.0047;0.000299;0.379;350
4730;446;0.0198;0.0047;0.000299;0.378;350
4732;446;0.0198;0.0047;0.000299;0.379;350
4734;446;0.0198;0.0047;0.000299;0.379;350
4736;446;0.0198;0.0047;0.000299;0.38;350
4738;446;0.0198;0.0047;0.000299;0.384;350
4740;446;0.0198;0.0047;0.000299;0.382;350
4742;446;0.0198;0.0047;0.000299;0.38;350
4744;446;0.0198;0.0047;0.000299;0.382;350
4746;446;0.0198;0.0047;0.000299;0.382;350
4748;446;0.0198;0.0047;0.000299;0.383;350
4750;446;0.0198;0.0047;0.000299;0.383;350
4752;446;0.0198;0.0047;0.000299;0.384;350
4754;446;0.0198;0.0047;0.000299;0.385;350
4756;446;0.0198;0.0047;0.000299;0.384;350
4758;446;0.0198;0.0047;0.000299;0.385;350
4760;446;0.0198;0.0047;0.000299;0.384;350
4762;446;0.0198;0.0047;0.000299;0.384;350
4764;446;0.0198;0.0047;0.000299;0.385;350
4766;446;0.0198;0.0047;0.000299;0.383;350
4768;446;0.0198;0.0047;0.000299;0.385;350
4770;446;0.0198;0.0047;0.000299;0.384;350
4772;446;0.0198;0.0047;0.000299;0.387;350
4774;446;0.0198;0.0047;0.000299;0.387;350
4776;446;0.0198;0.0047;0.000299;0.387;350
4778;446;0.0198;0.0047;0.000299;0.389;350
4780;446;0.0198;0.0047;0.000299;0.387;350
4782;446;0.0198;0.0047;0.000299;0.388;350
4784;446;0.0198;0.0047;0.000299;0.388;350
4786;446;0.0198;0.0047;0.000299;0.387;350
4788;446;0.0198;0.0047;0.000299;0.389;350
4790;446;0.0198;0.0047;0.000299;0.387;350
4792;446;0.0198;0.0047;0.000299;0.387;350
4794;446;0.0198;0.0047;0.000299;0.388;350
4796;446;0.0198;0.0047;0.000299;0.388;350
4798;446;0.0198;0.0047;0.000299;0.391;350
4800;446;0.0198;0.0047;0.000299;0.39;350
4802;446;0.0198;0.0047;0.000299;0.39;350
4804;445;0.0198;0.0047;0.000299;0.392;350
4806;445;0.0198;0.0047;0.000299;0.39;350
4808;446;0.0198;0.0047;0.000299;0.392;350
4810;446;0.0198;0.0047;0.000299;0.389;350
4812;446;0.0198;0.0047;0.000299;0.39;350
4814;446;0.0198;0.0047;0.000299;0.391;350
4816;446;0.0198;0.0047;0.000299;0.389;350
4818;446;0.0198;0.0047;0.000299;0.39;350
4820;446;0.0198;0.0047;0.000299;0.389;350
4822;446;0.0198;0.0047;0.000299;0.39;350
4824;446;0.0198;0.0047;0.000299;0.391;350
4826;446;0.0198;0.0047;0.000299;0.39;350
4828;446;0.0198;0.0047;0.000299;0.391;350
4830;446;0.0198;0.0047;0.000299;0.39;350
4832;446;0.0198;0.0047;0.000299;0.391;350
4834;446;0.0198;0.0047;0.000299;0.393;350
4836;446;0.0198;0.0047;0.000299;0.393;350
4838;446;0.0198;0.0047;0.000299;0.392;350
4840;446;0.0198;0.0047;0.000299;0.391;350
4842;446;0.0198;0.0047;0.000299;0.39;350
4844;446;0.0198;0.0047;0.000299;0.39;350
4846;446;0.0198;0.0047;0.000299;0.39;350
4848;446;0.0198;0.0047;0.000299;0.392;350
4850;446;0.0198;0.0047;0.000299;0.391;350
4852;446;0.0198;0.0047;0.000299;0.393;350
4854;446;0.0198;0.0047;0.000299;0.394;350
4856;446;0.0198;0.0047;0.000299;0.393;350
4858;446;0.0198;0.0047;0.000299;0.395;350
4860;446;0.0198;0.0047;0.000299;0.397;350
4862;446;0.0198;0.0047;0.000299;0.394;350
4864;446;0.0198;0.0047;0.000299;0.391;350
4866;446;0.0198;0.0047;0.000299;0.391;350
4868;446;0.0198;0.0047;0.000299;0.394;350
4870;446;0.0198;0.0047;0.000299;0.393;350
4872;446;0.0198;0.0047;0.000299;0.392;350
4874;446;0.0198;0.0047;0.000299;0.392;350
4876;446;0.0198;0.0047;0.000299;0.393;350
4878;446;0.0198;0.0047;0.000299;0.394;350
4880;446;0.0198;0.0047;0.000299;0.393;350
4882;446;0.0198;0.0047;0.000299;0.392;350
4884;446;0.0198;0.0047;0.000299;0.394;350
4886;446;0.0198;0.0047;0.000299;0.394;350
4888;446;0.0198;0.0047;0.000299;0.395;350
4890;446;0.0198;0.0047;0.000299;0.394;350
4892;446;0.0198;0.0047;0.000299;0.395;350
4894;446;0.0198;0.0047;0.000299;0.395;350
4896;446;0.0198;0.0047;0.000299;0.393;350
4898;446;0.0198;0.0047;0.000299;0.393;350
4900;446;0.0198;0.0047;0.000299;0.394;350
4902;446;0.0198;0.0047;0.000299;0.394;350
4904;446;0.0198;0.0047;0.000299;0.395;350
4906;446;0.0198;0.0047;0.000299;0.394;350
4908;446;0.0198;0.0047;0.000299;0.396;350
4910;446;0.0198;0.0047;0.000299;0.394;350
4912;446;0.0198;0.0047;0.000299;0.394;350
4914;446;0.0198;0.0047;0.000299;0.395;350
4916;446;0.0198;0.0047;0.000299;0.394;350
4918;446;0.0198;0.0047;0.000299;0.395;350
4920;446;0.0198;0.0047;0.000299;0.395;350
4922;446;0.0198;0.0047;0.000299;0.395;350
4924;446;0.0198;0.0047;0.000299;0.396;350
4926;446;0.0198;0.0047;0.000299;0.395;350
4928;446;0.0198;0.0047;0.000299;0.397;350
4930;446;0.0198;0.0047;0.000299;0.397;350
4932;446;0.0198;0.0047;0.000299;0.398;350
4934;446;0.0198;0.0047;0.000299;0.398;350
4936;446;0.0198;0.0047;0.000299;0.395;350
4938;446;0.0198;0.0047;0.000299;0.396;350
4940;446;0.0198;0.0047;0.000299;0.395;350
4942;446;0.0198;0.0047;0.000299;0.396;350
4944;446;0.0198;0.0047;0.000299;0.398;350
4946;446;0.0198;0.0047;0.000299;0.398;350
4948;446;0.0198;0.0047;0.000299;0.401;350
4950;446;0.0198;0.0047;0.000299;0.398;350
4952;446;0.0198;0.0047;0.000299;0.398;350
4954;446;0.0198;0.0047;0.000299;0.399;350
4956;446;0.0198;0.0047;0.000299;0.398;350
4958;446;0.0198;0.0047;0.000299;0.4;350
4960;446;0.0198;0.0047;0.000299;0.399;350
4962;446;0.0198;0.0047;0.000299;0.4;350
4964;446;0.0198;0.0047;0.000299;0.401;350
4966;446;0.0198;0.0047;0.000299;0.401;350
4968;446;0.0198;0.0047;0.000299;0.403;350
4970;446;0.0198;0.0047;0.000299;0.401;350
4972;446;0.0198;0.0047;0.000299;0.401;350
4974;446;0.0198;0.0047;0.000299;0.401;350
4976;446;0.0198;0.0047;0.000299;0.4;350
4978;446;0.0198;0.0047;0.000299;0.401;350
4980;446;0.0198;0.0047;0.000299;0.401;350
4982;446;0.0198;0.0047;0.000299;0.402;350
4984;446;0.0198;0.0047;0.000299;0.403;350
4986;446;0.0198;0.0047;0.000299;0.402;350
4988;446;0.0198;0.0047;0.000299;0.404;350
4990;446;0.0198;0.0047;0.000299;0.404;350
4992;446;0.0198;0.0047;0.000299;0.404;350
4994;446;0.0198;0.0047;0.000299;0.405;350
4996;446;0.0198;0.0047;0.000299;0.404;350
4998;446;0.0198;0.0047;0.000299;0.406;350
5000;446;0.0198;0.0047;0.000299;0.405;350
5002;446;0.0198;0.0047;0.000299;0.405;350
5004;446;0.0198;0.0047;0.000299;0.407;350
5006;446;0.0198;0.0047;0.000299;0.405;350
5008;446;0.0198;0.0047;0.000299;0.406;350
5010;446;0.0198;0.0047;0.000299;0.405;350
5012;446;0.0198;0.0047;0.000299;0.406;350
5014;446;0.0198;0.0047;0.000299;0.407;350
5016;446;0.0198;0.0047;0.000299;0.406;350
5018;446;0.0198;0.0047;0.000299;0.408;350
5020;446;0.0198;0.0047;0.000299;0.407;350
5022;446;0.0198;0.0047;0.000299;0.407;350
5024;446;0.0198;0.0047;0.000299;0.409;350
5026;446;0.0198;0.0047;0.000299;0.408;350
5028;446;0.0198;0.0047;0.000299;0.41;350
5030;446;0.0198;0.0047;0.000299;0.409;350
5032;446;0.0198;0.0047;0.000299;0.41;350
5034;446;0.0198;0.0047;0.000299;0.411;350
5036;446;0.0198;0.0047;0.000299;0.411;350
5038;446;0.0198;0.0047;0.000299;0.413;350
5040;446;0.0198;0.0047;0.000299;0.412;350
5042;446;0.0198;0.0047;0.000299;0.413;350
5044;446;0.0198;0.0047;0.000299;0.414;350
5046;446;0.0198;0.0047;0.000299;0.414;350
5048;446;0.0198;0.0047;0.000299;0.415;350
5050;446;0.0198;0.0047;0.000299;0.415;350
5052;446;0.0198;0.0047;0.000299;0.414;350
5054;446;0.0198;0.0047;0.000299;0.415;350
5056;446;0.0198;0.0047;0.000299;0.414;350
5058;446;0.0198;0.0047;0.000299;0.416;350
5060;446;0.0198;0.0047;0.000299;0.415;350
5062;446;0.0198;0.0047;0.000299;0.416;350
5064;446;0.0198;0.0047;0.000299;0.418;350
5066;446;0.0198;0.0047;0.000299;0.416;350
5068;446;0.0198;0.0047;0.000299;0.419;350
5070;446;0.0198;0.0047;0.000299;0.418;350
5072;446;0.0198;0.0047;0.000299;0.42;350
5074;446;0.0198;0.0047;0.000299;0.421;350
5076;446;0.0198;0.0047;0.000299;0.421;350
5078;446;0.0198;0.0047;0.000299;0.422;350
5080;446;0.0198;0.0047;0.000299;0.421;350
5082;446;0.0198;0.0047;0.000299;0.42;350
5084;446;0.0198;0.0047;0.000299;0.422;350
5086;446;0.0198;0.0047;0.000299;0.42;350
5088;446;0.0198;0.0047;0.000299;0.421;350
5090;446;0.0198;0.0047;0.000299;0.421;350
5092;446;0.0198;0.0047;0.000299;0.422;350
5094;446;0.0198;0.0047;0.000299;0.423;350
5096;446;0.0198;0.0047;0.000299;0.421;350
5098;446;0.0198;0.0047;0.000299;0.424;350
5100;446;0.0198;0.0047;0.000299;0.422;350
5102;446;0.0198;0.0047;0.000299;0.423;350
5104;446;0.0198;0.0047;0.000299;0.425;350
5106;446;0.0198;0.0047;0.000299;0.423;350
5108;446;0.0198;0.0047;0.000299;0.423;350
5110;446;0.0198;0.0047;0.000299;0.423;350
5112;446;0.0198;0.0047;0.000299;0.423;350
5114;446;0.0198;0.0047;0.000299;0.423;350
5116;446;0.0198;0.0047;0.000299;0.421;350
5118;446;0.0198;0.0047;0.000299;0.422;350
5120;446;0.0198;0.0047;0.000299;0.421;350
5122;446;0.0198;0.0047;0.000299;0.42;350
5124;446;0.0198;0.0047;0.000299;0.422;350
5126;446;0.0198;0.0047;0.000299;0.421;350
5128;446;0.0198;0.0047;0.000299;0.423;350
5130;446;0.0198;0.0047;0.000299;0.423;350
5132;446;0.0198;0.0047;0.000299;0.422;350
5134;446;0.0198;0.0047;0.000299;0.425;350
5136;446;0.0198;0.0047;0.000299;0.424;350
5138;446;0.0198;0.0047;0.000299;0.426;350
5140;446;0.0198;0.0047;0.000299;0.425;350
5142;446;0.0198;0.0047;0.000299;0.425;350
5144;446;0.0198;0.0047;0.000299;0.425;350
5146;446;0.0198;0.0047;0.000299;0.423;350
5148;446;0.0198;0.0047;0.000299;0.424;350
5150;446;0.0198;0.0047;0.000299;0.423;350
5152;446;0.0198;0.0047;0.000299;0.423;350
5154;446;0.0198;0.0047;0.000299;0.425;350
5156;446;0.0198;0.0047;0.000299;0.424;350
5158;446;0.0198;0.0047;0.000299;0.425;350
5160;446;0.0198;0.0047;0.000299;0.426;350
5162;446;0.0198;0.0047;0.000299;0.425;350
5164;445;0.0198;0.0047;0.000299;0.427;350
5166;445;0.0198;0.0047;0.000299;0.425;350
5168;445;0.0198;0.0047;0.000299;0.427;350
5170;445;0.0198;0.0047;0.000299;0.426;350
5172;446;0.0198;0.0047;0.000299;0.425;350
5174;446;0.0198;0.0047;0.000299;0.425;350
5176;446;0.0198;0.0047;0.000299;0.424;350
5178;446;0.0198;0.0047;0.000299;0.426;350
5180;446;0.0198;0.0047;0.000299;0.425;350
5182;446;0.0198;0.0047;0.000299;0.425;350
5184;446;0.0198;0.0047;0.000299;0.428;350
5186;445;0.0198;0.0047;0.000299;0.426;350
5188;445;0.0198;0.0047;0.000299;0.428;350
5190;445;0.0198;0.0047;0.000299;0.427;350
5192;445;0.0198;0.0047;0.000299;0.427;350
5194;445;0.0198;0.0047;0.000299;0.428;350
5196;445;0.0198;0.0047;0.000299;0.426;350
5198;445;0.0198;0.0047;0.000299;0.427;350
5200;445;0.0198;0.0047;0.000299;0.426;350
5202;445;0.0198;0.0047;0.000299;0.425;350
5204;445;0.0198;0.0047;0.000299;0.426;350
5206;445;0.0198;0.0047;0.000299;0.425;350
5208;445;0.0198;0.0047;0.000299;0.425;350
5210;445;0.0198;0.0047;0.000299;0.425;350
5212;445;0.0198;0.0047;0.000299;0.425;350
5214;445;0.0198;0.0047;0.000299;0.427;350
5216;445;0.0198;0.0047;0.000299;0.425;350
5218;445;0.0198;0.0047;0.000299;0.426;350
5220;445;0.0198;0.0047;0.000299;0.427;350
5222;445;0.0198;0.0047;0.000299;0.427;350
5224;445;0.0198;0.0047;0.000299;0.428;350
5226;445;0.0198;0.0047;0.000299;0.427;350
5228;445;0.0198;0.0047;0.000299;0.428;350
5230;445;0.0198;0.0047;0.000299;0.426;350
5232;445;0.0198;0.0047;0.000299;0.425;350
5234;445;0.0198;0.0047;0.000299;0.427;350
5236;445;0.0198;0.0047;0.000299;0.426;350
5238;445;0.0198;0.0047;0.000299;0.428;350
5240;445;0.0198;0.0047;0.000299;0.427;350
5242;445;0.0198;0.0047;0.000299;0.426;350
5244;445;0.0198;0.0047;0.000299;0.429;350
5246;445;0.0198;0.0047;0.000299;0.427;350
5248;445;0.0198;0.0047;0.000299;0.428;350
5250;445;0.0198;0.0047;0.000299;0.427;350
5252;445;0.0198;0.0047;0.000299;0.426;350
5254;445;0.0198;0.0047;0.000299;0.426;350
5256;445;0.0198;0.0047;0.000299;0.424;350
5258;445;0.0198;0.0047;0.000299;0.426;350
5260;445;0.0198;0.0047;0.000299;0.424;350
5262;445;0.0198;0.0047;0.000299;0.425;350
5264;445;0.0198;0.0047;0.000299;0.426;350
5266;445;0.0198;0.0047;0.000299;0.425;350
5268;445;0.0198;0.0047;0.000299;0.427;350
5270;445;0.0198;0.0047;0.000299;0.427;350
5272;445;0.0198;0.0047;0.000299;0.426;350
5274;445;0.0198;0.0047;0.000299;0.428;350
5276;445;0.0198;0.0047;0.000299;0.423;350
5278;445;0.0198;0.0047;0.000299;0.424;350
5280;445;0.0198;0.0047;0.000299;0.423;350
5282;445;0.0198;0.0047;0.000299;0.424;350
5284;445;0.0198;0.0047;0.000299;0.425;350
5286;445;0.0198;0.0047;0.000299;0.422;350
5288;445;0.0198;0.0047;0.000299;0.424;350
5290;445;0.0198;0.0047;0.000299;0.422;350
5292;445;0.0198;0.0047;0.000299;0.421;350
5294;445;0.0198;0.0047;0.000299;0.421;350
5296;445;0.0198;0.0047;0.000299;0.419;350
5298;445;0.0198;0.0047;0.000299;0.421;350
5300;445;0.0198;0.0047;0.000299;0.421;350
5302;445;0.0198;0.0047;0.000299;0.423;350
5304;445;0.0198;0.0047;0.000299;0.425;350
5306;445;0.0198;0.0047;0.000299;0.425;350
5308;445;0.0198;0.0047;0.000299;0.427;350
5310;445;0.0198;0.0047;0.000299;0.423;350
5312;445;0.0198;0.0047;0.000299;0.42;350
5314;445;0.0198;0.0047;0.000299;0.423;350
5316;445;0.0198;0.0047;0.000299;0.423;350
5318;445;0.0198;0.0047;0.000299;0.425;350
5320;445;0.0198;0.0047;0.000299;0.425;350
5322;445;0.0198;0.0047;0.000299;0.422;350
5324;445;0.0198;0.0047;0.000299;0.421;350
5326;445;0.0198;0.0047;0.000299;0.419;350
5328;445;0.0198;0.0047;0.000299;0.421;350
5330;445;0.0198;0.0047;0.000299;0.421;350
5332;445;0.0198;0.0047;0.000299;0.421;350
5334;445;0.0198;0.0047;0.000299;0.424;350
5336;445;0.0198;0.0047;0.000299;0.422;350
5338;445;0.0198;0.0047;0.000299;0.423;350
5340;445;0.0198;0.0047;0.000299;0.42;350
5342;445;0.0198;0.0047;0.000299;0.418;350
5344;445;0.0198;0.0047;0.000299;0.421;350
5346;445;0.0198;0.0047;0.000299;0.42;350
5348;445;0.0198;0.0047;0.000299;0.423;350
5350;445;0.0198;0.0047;0.000299;0.423;350
5352;445;0.0198;0.0047;0.000299;0.424;350
5354;445;0.0198;0.0047;0.000299;0.425;350
5356;445;0.0198;0.0047;0.000299;0.423;350
5358;445;0.0198;0.0047;0.000299;0.421;350
5360;445;0.0198;0.0047;0.000299;0.419;350
5362;445;0.0198;0.0047;0.000299;0.419;350
5364;445;0.0198;0.0047;0.000299;0.421;350
5366;445;0.0198;0.0047;0.000299;0.421;350
5368;445;0.0198;0.0047;0.000299;0.423;350
5370;445;0.0198;0.0047;0.000299;0.424;350
5372;445;0.0198;0.0047;0.000299;0.423;350
5374;445;0.0198;0.0047;0.000299;0.422;350
5376;445;0.0198;0.0047;0.000299;0.42;350
5378;445;0.0198;0.0047;0.000299;0.421;350
5380;445;0.0198;0.0047;0.000299;0.422;350
5382;445;0.0198;0.0047;0.000299;0.423;350
5384;445;0.0198;0.0047;0.000299;0.424;350
5386;445;0.0198;0.0047;0.000299;0.424;350
5388;445;0.0198;0.0047;0.000299;0.424;350
5390;445;0.0198;0.0047;0.000299;0.423;350
5392;445;0.0198;0.0047;0.000299;0.423;350
5394;445;0.0198;0.0047;0.000299;0.424;350
5396;445;0.0198;0.0047;0.000299;0.421;350
5398;445;0.0198;0.0047;0.000299;0.423;350
5400;445;0.0198;0.0047;0.000299;0.422;350
5402;445;0.0198;0.0047;0.000299;0.422;350
5404;445;0.0198;0.0047;0.000299;0.424;350
5406;445;0.0198;0.0047;0.000299;0.425;350
5408;445;0.0198;0.0047;0.000299;0.427;350
5410;445;0.0198;0.0047;0.000299;0.426;350
5412;445;0.0198;0.0047;0.000299;0.423;350
5414;445;0.0198;0.0047;0.000299;0.423;350
5416;445;0.0198;0.0047;0.000299;0.422;350
5418;445;0.0198;0.0047;0.000299;0.423;350
5420;445;0.0198;0.0047;0.000299;0.428;350
5422;445;0.0198;0.0047;0.000299;0.427;350
5424;445;0.0198;0.0047;0.000299;0.427;350
5426;445;0.0198;0.0047;0.000299;0.423;350
5428;445;0.0198;0.0047;0.000299;0.424;350
5430;445;0.0198;0.0047;0.000299;0.423;350
5432;445;0.0198;0.0047;0.000299;0.423;350
5434;445;0.0198;0.0047;0.000299;0.424;350
5436;445;0.0198;0.0047;0.000299;0.424;350
5438;445;0.0198;0.0047;0.000299;0.426;350
5440;445;0.0198;0.0047;0.000299;0.426;350
5442;445;0.0198;0.0047;0.000299;0.425;350
5444;445;0.0198;0.0047;0.000299;0.426;350
5446;445;0.0198;0.0047;0.000299;0.424;350
5448;445;0.0198;0.0047;0.000299;0.425;350
5450;445;0.0198;0.0047;0.000299;0.424;350
5452;445;0.0198;0.0047;0.000299;0.423;350
5454;445;0.0198;0.0047;0.000299;0.425;350
5456;445;0.0198;0.0047;0.000299;0.423;350
5458;445;0.0198;0.0047;0.000299;0.425;350
5460;445;0.0198;0.0047;0.000299;0.425;350
5462;445;0.0198;0.0047;0.000299;0.425;350
5464;445;0.0198;0.0047;0.000299;0.427;350
5466;445;0.0198;0.0047;0.000299;0.426;350
5468;445;0.0198;0.0047;0.000299;0.426;350
5470;445;0.0198;0.0047;0.000299;0.422;350
5472;445;0.0198;0.0047;0.000299;0.423;350
5474;445;0.0198;0.0047;0.000299;0.426;350
5476;445;0.0198;0.0047;0.000299;0.425;350
5478;445;0.0198;0.0047;0.000299;0.425;350
5480;445;0.0198;0.0047;0.000299;0.421;350
5482;445;0.0198;0.0047;0.000299;0.423;350
5484;445;0.0198;0.0047;0.000299;0.426;350
5486;445;0.0198;0.0047;0.000299;0.425;350
5488;445;0.0198;0.0047;0.000299;0.425;350
5490;445;0.0198;0.0047;0.000299;0.422;350
5492;445;0.0198;0.0047;0.000299;0.423;350
5494;445;0.0198;0.0047;0.000299;0.425;350
5496;445;0.0198;0.0047;0.000299;0.423;350
5498;445;0.0198;0.0047;0.000299;0.423;350
5500;445;0.0198;0.0047;0.000299;0.423;350
5502;445;0.0198;0.0047;0.000299;0.423;350
5504;445;0.0198;0.0047;0.000299;0.427;350
5506;445;0.0198;0.0047;0.000299;0.427;350
5508;445;0.0198;0.0047;0.000299;0.428;350
5510;445;0.0198;0.0047;0.000299;0.424;350
5512;445;0.0198;0.0047;0.000299;0.423;350
5514;445;0.0198;0.0047;0.000299;0.424;350
5516;445;0.0198;0.0047;0.000299;0.423;350
5518;445;0.0198;0.0047;0.000299;0.425;350
5520;445;0.0198;0.0047;0.000299;0.425;350
5522;445;0.0198;0.0047;0.000299;0.425;350
5524;445;0.0198;0.0047;0.000299;0.426;350
5526;445;0.0198;0.0047;0.000299;0.424;350
5528;445;0.0198;0.0047;0.000299;0.423;350
5530;445;0.0198;0.0047;0.000299;0.423;350
5532;445;0.0198;0.0047;0.000299;0.423;350
5534;445;0.0198;0.0047;0.000299;0.428;350
5536;445;0.0198;0.0047;0.000299;0.427;350
5538;445;0.0198;0.0047;0.000299;0.427;350
5540;445;0.0198;0.0047;0.000299;0.426;350
5542;445;0.0198;0.0047;0.000299;0.422;350
5544;445;0.0198;0.0047;0.000299;0.424;350
5546;445;0.0198;0.0047;0.000299;0.426;350
5548;445;0.0198;0.0047;0.000299;0.427;350
5550;445;0.0198;0.0047;0.000299;0.425;350
5552;445;0.0198;0.0047;0.000299;0.422;350
5554;445;0.0198;0.0047;0.000299;0.426;350
5556;445;0.0198;0.0047;0.000299;0.425;350
5558;445;0.0198;0.0047;0.000299;0.424;350
5560;445;0.0198;0.0047;0.000299;0.424;350
5562;445;0.0198;0.0047;0.000299;0.425;350
5564;445;0.0198;0.0047;0.000299;0.425;350
5566;445;0.0198;0.0047;0.000299;0.422;350
5568;445;0.0198;0.0047;0.000299;0.424;350
5570;445;0.0198;0.0047;0.000299;0.425;350
5572;445;0.0198;0.0047;0.000299;0.426;350
5574;445;0.0198;0.0047;0.000299;0.426;350
5576;445;0.0198;0.0047;0.000299;0.423;350
5578;445;0.0198;0.0047;0.000299;0.424;350
5580;445;0.0198;0.0047;0.000299;0.422;350
5582;445;0.0198;0.0047;0.000299;0.422;350
5584;445;0.0198;0.0047;0.000299;0.424;350
5586;445;0.0198;0.0047;0.000299;0.423;350
5588;445;0.0198;0.0047;0.000299;0.424;350
5590;445;0.0198;0.0047;0.000299;0.424;350
5592;445;0.0198;0.0047;0.000299;0.424;350
5594;445;0.0198;0.0047;0.000299;0.426;350
5596;445;0.0198;0.0047;0.000299;0.424;350
5598;445;0.0198;0.0047;0.000299;0.425;350
5600;445;0.0198;0.0047;0.000299;0.424;350
5602;445;0.0198;0.0047;0.000299;0.423;350
5604;445;0.0198;0.0047;0.000299;0.424;350
5606;445;0.0198;0.0047;0.000299;0.421;350
5608;445;0.0198;0.0047;0.000299;0.421;350
5610;445;0.0198;0.0047;0.000299;0.421;350
5612;445;0.0198;0.0047;0.000299;0.421;350
5614;445;0.0198;0.0047;0.000299;0.424;350
5616;445;0.0198;0.0047;0.000299;0.423;350
5618;445;0.0198;0.0047;0.000299;0.425;350
5620;445;0.0198;0.0047;0.000299;0.425;350
5622;445;0.0198;0.0047;0.000299;0.425;350
5624;445;0.0198;0.0047;0.000299;0.426;350
5626;445;0.0198;0.0047;0.000299;0.425;350
5628;445;0.0198;0.0047;0.000299;0.424;350
5630;445;0.0198;0.0047;0.000299;0.424;350
5632;445;0.0198;0.0047;0.000299;0.422;350
5634;445;0.0198;0.0047;0.000299;0.424;350
5636;445;0.0198;0.0047;0.000299;0.422;350
5638;445;0.0198;0.0047;0.000299;0.423;350
