Time [s];T_cat [gradC];n_h2 [mol/s];n_ch4 [mol/s];n_h2_res [mol/s];m_DE [kg/h];Pel [W]
0;446;0.0199;0.0047;0.000299;0.856;350
2;446;0.0199;0.0048;0.0003;0.845;350
4;447;0.02;0.0048;0.000301;0.86;350
6;447;0.0201;0.0048;0.000302;0.87;350
8;448;0.0201;0.0048;0.000303;0.869;350
10;448;0.0202;0.0048;0.000304;0.869;350
12;448;0.0202;0.0048;0.000305;0.872;350
14;449;0.0203;0.0049;0.000306;0.877;350
16;449;0.0204;0.0049;0.000306;0.884;350
18;449;0.0204;0.0049;0.000307;0.883;350
20;449;0.0205;0.0049;0.000308;0.889;350
22;450;0.0206;0.0049;0.000309;0.891;350
24;450;0.0206;0.0049;0.00031;0.892;350
26;449;0.0207;0.0050;0.000311;0.896;350
28;449;0.0207;0.0050;0.000312;0.894;350
30;449;0.0208;0.0050;0.000313;0.897;350
32;449;0.0209;0.0050;0.000314;0.895;350
34;449;0.0209;0.0050;0.000315;0.892;350
36;448;0.021;0.0050;0.000316;0.894;350
38;448;0.021;0.0051;0.000317;0.891;350
40;448;0.0211;0.0051;0.000318;0.891;350
42;448;0.0212;0.0051;0.000318;0.888;350
44;448;0.0212;0.0051;0.000319;0.883;350
46;447;0.0213;0.0051;0.00032;0.882;350
48;447;0.0214;0.0051;0.000321;0.879;350
50;447;0.0214;0.0052;0.000322;0.883;350
52;447;0.0215;0.0052;0.000323;0.882;350
54;447;0.0215;0.0052;0.000324;0.88;350
56;447;0.0216;0.0052;0.000325;0.882;350
58;447;0.0217;0.0052;0.000326;0.881;350
60;447;0.0217;0.0052;0.000327;0.885;350
62;447;0.0218;0.0053;0.000328;0.885;350
64;447;0.0218;0.0053;0.000328;0.884;350
66;447;0.0219;0.0053;0.000329;0.887;350
68;447;0.022;0.0053;0.00033;0.884;350
70;447;0.022;0.0053;0.000331;0.888;350
72;447;0.0221;0.0053;0.000332;0.885;350
74;447;0.0221;0.0053;0.000333;0.886;350
76;447;0.0222;0.0054;0.000334;0.892;350
78;447;0.0223;0.0054;0.000335;0.892;350
80;447;0.0223;0.0054;0.000336;0.896;350
82;447;0.0224;0.0054;0.000337;0.899;350
84;447;0.0225;0.0054;0.000338;0.899;350
86;447;0.0225;0.0054;0.000339;0.903;350
88;448;0.0226;0.0055;0.00034;0.902;350
90;448;0.0226;0.0055;0.00034;0.907;350
92;448;0.0227;0.0055;0.000341;0.908;350
94;448;0.0228;0.0055;0.000342;0.909;350
96;448;0.0228;0.0055;0.000343;0.912;350
98;448;0.0229;0.0055;0.000344;0.912;350
100;448;0.0229;0.0056;0.000345;0.916;350
102;449;0.023;0.0056;0.000346;0.917;350
104;449;0.0231;0.0056;0.000347;0.919;350
106;449;0.0231;0.0056;0.000348;0.924;350
108;449;0.0232;0.0056;0.000349;0.927;350
110;449;0.0233;0.0056;0.00035;0.932;350
112;450;0.0233;0.0057;0.00035;0.933;350
114;450;0.0234;0.0057;0.000351;0.935;350
116;450;0.0234;0.0057;0.000352;0.94;350
118;450;0.0235;0.0057;0.000353;0.94;350
120;450;0.0236;0.0057;0.000354;0.945;350
122;451;0.0236;0.0057;0.000355;0.945;350
124;451;0.0237;0.0058;0.000356;0.949;350
126;451;0.0237;0.0058;0.000357;0.955;350
128;451;0.0238;0.0058;0.000358;0.955;350
130;451;0.0239;0.0058;0.000359;0.96;350
132;452;0.0239;0.0058;0.00036;0.962;350
134;452;0.024;0.0058;0.000361;0.968;350
136;452;0.0241;0.0059;0.000361;0.972;350
138;452;0.0241;0.0059;0.000362;0.974;350
140;453;0.0242;0.0059;0.000363;0.979;350
142;453;0.0242;0.0059;0.000364;0.982;350
144;453;0.0243;0.0059;0.000365;0.985;350
146;453;0.0244;0.0059;0.000366;0.989;350
148;453;0.0244;0.0060;0.000367;0.991;350
150;454;0.0245;0.0060;0.000368;0.995;350
152;454;0.0245;0.0060;0.000369;0.995;350
154;454;0.0246;0.0060;0.00037;0.997;350
156;454;0.0247;0.0060;0.000371;1;350
158;454;0.0247;0.0060;0.000372;1;350
160;454;0.0248;0.0061;0.000372;1.01;350
162;454;0.0248;0.0061;0.000373;1.01;350
164;454;0.0249;0.0061;0.000374;1.01;350
166;454;0.025;0.0061;0.000375;1.02;350
168;454;0.025;0.0061;0.000376;1.01;350
170;455;0.0251;0.0061;0.000377;1.02;350
172;455;0.0252;0.0062;0.000378;1.02;350
174;455;0.0252;0.0062;0.000379;1.02;350
176;455;0.0253;0.0062;0.00038;1.03;350
178;455;0.0253;0.0062;0.000381;1.03;350
180;455;0.0254;0.0062;0.000382;1.03;350
182;455;0.0255;0.0062;0.000383;1.03;350
184;455;0.0255;0.0062;0.000383;1.04;350
186;455;0.0256;0.0063;0.000384;1.04;350
188;456;0.0257;0.0063;0.000385;1.04;350
190;456;0.0257;0.0063;0.000386;1.05;350
192;456;0.0258;0.0063;0.000387;1.05;350
194;456;0.0258;0.0063;0.000388;1.05;350
196;456;0.0259;0.0063;0.000389;1.06;350
198;456;0.026;0.0064;0.00039;1.06;350
200;457;0.026;0.0064;0.000391;1.06;350
202;457;0.0261;0.0064;0.000392;1.06;350
204;457;0.0261;0.0064;0.000393;1.07;350
206;457;0.0262;0.0064;0.000394;1.07;350
208;457;0.0263;0.0064;0.000394;1.07;350
210;457;0.0263;0.0065;0.000395;1.08;350
212;458;0.0264;0.0065;0.000396;1.08;350
214;458;0.0264;0.0065;0.000397;1.08;350
216;458;0.0265;0.0065;0.000398;1.08;350
218;458;0.0266;0.0065;0.000399;1.08;350
220;457;0.0266;0.0065;0.0004;1.09;350
222;457;0.0267;0.0066;0.000401;1.09;350
224;457;0.0268;0.0066;0.000402;1.09;350
226;457;0.0268;0.0066;0.000403;1.09;350
228;457;0.0269;0.0066;0.000404;1.09;350
230;456;0.0269;0.0066;0.000404;1.09;350
232;456;0.027;0.0066;0.000405;1.08;350
234;456;0.0271;0.0067;0.000406;1.08;350
236;455;0.0271;0.0067;0.000407;1.08;350
238;455;0.0272;0.0067;0.000408;1.08;350
240;454;0.0272;0.0067;0.000409;1.08;350
242;454;0.0273;0.0067;0.00041;1.07;350
244;453;0.0274;0.0067;0.000411;1.07;350
246;453;0.0274;0.0067;0.000412;1.06;350
248;452;0.0275;0.0068;0.000413;1.06;350
250;452;0.0275;0.0068;0.000414;1.06;350
252;452;0.0276;0.0068;0.000415;1.06;350
254;451;0.0277;0.0068;0.000415;1.06;350
256;451;0.0277;0.0068;0.000416;1.06;350
258;451;0.0278;0.0068;0.000417;1.05;350
260;451;0.0279;0.0069;0.000418;1.06;350
262;451;0.0279;0.0069;0.000419;1.05;350
264;450;0.028;0.0069;0.00042;1.06;350
266;450;0.028;0.0069;0.000421;1.05;350
268;450;0.0281;0.0069;0.000422;1.05;350
270;450;0.0282;0.0069;0.000423;1.06;350
272;450;0.0282;0.0070;0.000424;1.05;350
274;450;0.0283;0.0070;0.000425;1.06;350
276;450;0.0284;0.0070;0.000426;1.06;350
278;450;0.0284;0.0070;0.000426;1.06;350
280;450;0.0285;0.0070;0.000427;1.06;350
282;450;0.0285;0.0070;0.000428;1.06;350
284;450;0.0286;0.0071;0.000429;1.06;350
286;450;0.0287;0.0071;0.00043;1.06;350
288;450;0.0287;0.0071;0.000431;1.07;350
290;450;0.0288;0.0071;0.000432;1.07;350
292;450;0.0288;0.0071;0.000433;1.07;350
294;450;0.0289;0.0071;0.000434;1.07;350
296;450;0.029;0.0072;0.000435;1.07;350
298;450;0.029;0.0072;0.000436;1.08;350
300;450;0.0291;0.0072;0.000436;1.09;350
302;450;0.0291;0.0072;0.000437;1.09;350
304;451;0.0292;0.0072;0.000438;1.09;350
306;451;0.0293;0.0072;0.000439;1.09;350
308;451;0.0293;0.0072;0.00044;1.09;350
310;451;0.0294;0.0073;0.000441;1.1;350
312;451;0.0295;0.0073;0.000442;1.09;350
314;451;0.0295;0.0073;0.000443;1.1;350
316;451;0.0296;0.0073;0.000444;1.1;350
318;451;0.0296;0.0073;0.000445;1.1;350
320;452;0.0297;0.0074;0.000446;1.11;350
322;452;0.0298;0.0074;0.000446;1.11;350
324;452;0.0298;0.0074;0.000447;1.11;350
326;452;0.0299;0.0074;0.000448;1.11;350
328;452;0.0299;0.0074;0.000449;1.11;350
330;452;0.03;0.0074;0.00045;1.12;350
332;452;0.0301;0.0075;0.000451;1.12;350
334;452;0.0301;0.0075;0.000452;1.12;350
336;452;0.0302;0.0075;0.000453;1.12;350
338;452;0.0303;0.0075;0.000454;1.13;350
340;452;0.0303;0.0075;0.000455;1.13;350
342;452;0.0304;0.0075;0.000456;1.13;350
344;452;0.0304;0.0075;0.000457;1.13;350
346;452;0.0305;0.0076;0.000458;1.13;350
348;452;0.0306;0.0076;0.000458;1.14;350
350;452;0.0306;0.0076;0.000459;1.14;350
352;453;0.0307;0.0076;0.00046;1.14;350
354;453;0.0307;0.0076;0.000461;1.15;350
356;453;0.0308;0.0076;0.000462;1.14;350
358;453;0.0309;0.0077;0.000463;1.15;350
360;453;0.0309;0.0077;0.000464;1.15;350
362;453;0.031;0.0077;0.000465;1.15;350
364;453;0.0311;0.0077;0.000466;1.15;350
366;453;0.0311;0.0077;0.000467;1.15;350
368;453;0.0312;0.0077;0.000468;1.16;350
370;453;0.0312;0.0078;0.000468;1.16;350
372;453;0.0313;0.0078;0.000469;1.16;350
374;453;0.0314;0.0078;0.00047;1.17;350
376;453;0.0314;0.0078;0.000471;1.17;350
378;453;0.0315;0.0078;0.000472;1.17;350
380;453;0.0315;0.0078;0.000473;1.17;350
382;454;0.0316;0.0079;0.000474;1.18;350
384;454;0.0317;0.0079;0.000475;1.18;350
386;454;0.0317;0.0079;0.000476;1.18;350
388;454;0.0318;0.0079;0.000477;1.19;350
390;454;0.0318;0.0079;0.000478;1.19;350
392;454;0.0319;0.0079;0.000479;1.19;350
394;454;0.032;0.0080;0.000479;1.19;350
396;454;0.032;0.0080;0.00048;1.2;350
398;455;0.0321;0.0080;0.000481;1.2;350
400;455;0.0322;0.0080;0.000482;1.2;350
402;455;0.0322;0.0080;0.000483;1.2;350
404;455;0.0323;0.0080;0.000484;1.21;350
406;455;0.0323;0.0080;0.000485;1.21;350
408;455;0.0324;0.0081;0.000486;1.22;350
410;455;0.0325;0.0081;0.000487;1.22;350
412;456;0.0325;0.0081;0.000488;1.22;350
414;456;0.0326;0.0081;0.000488;1.23;350
416;456;0.0326;0.0081;0.000489;1.23;350
418;456;0.0327;0.0081;0.00049;1.24;350
420;456;0.0328;0.0082;0.000491;1.24;350
422;456;0.0328;0.0082;0.000492;1.24;350
424;456;0.0329;0.0082;0.000493;1.24;350
426;456;0.033;0.0082;0.000494;1.24;350
428;456;0.033;0.0082;0.000495;1.25;350
430;456;0.0331;0.0082;0.000496;1.25;350
432;456;0.0331;0.0083;0.000497;1.25;350
434;457;0.0332;0.0083;0.000498;1.26;350
436;457;0.0333;0.0083;0.000498;1.26;350
438;457;0.0333;0.0083;0.000499;1.26;350
440;457;0.0334;0.0083;0.0005;1.26;350
442;457;0.0334;0.0083;0.000501;1.26;350
444;457;0.0335;0.0084;0.000502;1.27;350
446;457;0.0336;0.0084;0.000503;1.27;350
448;457;0.0336;0.0084;0.000504;1.27;350
450;457;0.0337;0.0077;0.00133;1.27;350
452;457;0.0338;0.0077;0.00133;1.28;350
454;457;0.0338;0.0077;0.00133;1.28;350
456;457;0.0339;0.0077;0.00133;1.28;350
458;457;0.0339;0.0077;0.00134;1.29;350
460;457;0.034;0.0077;0.00134;1.29;350
462;457;0.0341;0.0077;0.00134;1.29;350
464;457;0.0341;0.0078;0.00135;1.29;350
466;457;0.0342;0.0078;0.00135;1.29;350
468;457;0.0342;0.0078;0.00135;1.3;350
470;457;0.0343;0.0078;0.00135;1.3;350
472;457;0.0344;0.0078;0.00133;1.3;350
474;457;0.0344;0.0079;0.00133;1.3;350
476;458;0.0345;0.0079;0.00132;1.31;350
478;458;0.0345;0.0079;0.0013;1.31;350
480;458;0.0346;0.0080;0.00128;1.31;350
482;458;0.0347;0.0080;0.00126;1.32;350
484;458;0.0347;0.0080;0.00124;1.32;350
486;458;0.0348;0.0080;0.00124;1.32;350
488;458;0.0349;0.0081;0.00122;1.32;350
490;458;0.0349;0.0081;0.00121;1.32;350
492;458;0.035;0.0081;0.00119;1.33;350
494;458;0.035;0.0082;0.00117;1.33;350
496;458;0.0351;0.0082;0.00115;1.33;350
498;458;0.0352;0.0082;0.00114;1.34;350
500;458;0.0352;0.0083;0.00112;1.34;350
502;458;0.0353;0.0083;0.00112;1.34;350
504;458;0.0353;0.0083;0.0011;1.34;350
506;458;0.0354;0.0084;0.00109;1.35;350
508;458;0.0355;0.0084;0.00107;1.35;350
510;458;0.0355;0.0084;0.00104;1.35;350
512;458;0.0356;0.0084;0.00104;1.35;350
514;458;0.0357;0.0085;0.00103;1.35;350
516;458;0.0357;0.0085;0.00101;1.35;350
518;458;0.0358;0.0085;0.000993;1.36;350
520;458;0.0358;0.0086;0.000984;1.36;350
522;458;0.0359;0.0086;0.000969;1.37;350
524;458;0.036;0.0086;0.000961;1.36;350
526;458;0.036;0.0087;0.000946;1.36;350
528;458;0.0361;0.0087;0.000932;1.37;350
530;457;0.0361;0.0087;0.000917;1.37;350
532;457;0.0362;0.0087;0.000903;1.37;350
534;457;0.0363;0.0088;0.000881;1.37;350
536;457;0.0363;0.0088;0.000885;1.38;350
538;457;0.0364;0.0088;0.000887;1.38;350
540;457;0.0365;0.0088;0.000883;1.37;350
542;457;0.0365;0.0089;0.000869;1.38;350
544;457;0.0366;0.0089;0.000868;1.38;350
546;457;0.0366;0.0089;0.000854;1.38;350
548;457;0.0367;0.0089;0.000853;1.38;350
550;457;0.0368;0.0090;0.000845;1.38;350
552;457;0.0368;0.0090;0.000835;1.39;350
554;457;0.0369;0.0090;0.000841;1.39;350
556;457;0.0369;0.0090;0.000836;1.39;350
558;456;0.037;0.0090;0.000828;1.39;350
560;456;0.0371;0.0090;0.000829;1.39;350
562;456;0.0371;0.0091;0.000824;1.39;350
564;456;0.0372;0.0091;0.000833;1.4;350
566;456;0.0372;0.0091;0.00083;1.4;350
568;456;0.0373;0.0091;0.00082;1.4;350
570;456;0.0374;0.0092;0.000809;1.4;350
572;456;0.0374;0.0092;0.000817;1.4;350
574;456;0.0375;0.0092;0.000814;1.4;350
576;456;0.0376;0.0092;0.000814;1.41;350
578;456;0.0376;0.0092;0.00082;1.41;350
580;456;0.0377;0.0092;0.000818;1.41;350
582;456;0.0377;0.0092;0.000816;1.41;350
584;456;0.0378;0.0093;0.000811;1.41;350
586;455;0.0379;0.0093;0.000808;1.41;350
588;455;0.0379;0.0093;0.000811;1.42;350
590;455;0.038;0.0093;0.000817;1.42;350
592;455;0.038;0.0093;0.00082;1.42;350
594;455;0.0381;0.0093;0.000834;1.43;350
596;455;0.0382;0.0094;0.000826;1.43;350
598;455;0.0382;0.0094;0.000832;1.43;350
600;455;0.0383;0.0094;0.000834;1.42;350
602;455;0.0384;0.0094;0.000829;1.43;350
604;455;0.0384;0.0094;0.000823;1.42;350
606;455;0.0385;0.0094;0.000831;1.43;350
608;455;0.0385;0.0094;0.00084;1.42;350
610;454;0.0386;0.0095;0.00085;1.43;350
612;454;0.0387;0.0095;0.000848;1.43;350
614;454;0.0387;0.0095;0.000845;1.43;350
616;454;0.0388;0.0095;0.000842;1.43;350
618;454;0.0388;0.0095;0.000833;1.43;350
620;454;0.0389;0.0095;0.000851;1.44;350
622;454;0.039;0.0095;0.000861;1.44;350
624;454;0.039;0.0096;0.000864;1.44;350
626;454;0.0391;0.0096;0.000866;1.44;350
628;454;0.0392;0.0096;0.000853;1.44;350
630;454;0.0392;0.0096;0.000866;1.45;350
632;454;0.0393;0.0096;0.000857;1.44;350
634;454;0.0393;0.0096;0.000869;1.45;350
636;454;0.0394;0.0097;0.000864;1.45;350
638;454;0.0395;0.0097;0.000876;1.45;350
640;454;0.0395;0.0097;0.000865;1.46;350
642;454;0.0396;0.0097;0.000873;1.45;350
644;453;0.0396;0.0097;0.000872;1.46;350
646;453;0.0397;0.0097;0.000865;1.46;350
648;453;0.0398;0.0097;0.000883;1.46;350
650;453;0.0398;0.0098;0.000882;1.46;350
652;453;0.0399;0.0098;0.000889;1.46;350
654;453;0.04;0.0098;0.000889;1.47;350
656;453;0.04;0.0098;0.000895;1.47;350
658;453;0.0401;0.0098;0.000878;1.47;350
660;453;0.0401;0.0098;0.000905;1.47;350
662;453;0.0402;0.0098;0.000913;1.47;350
664;453;0.0403;0.0098;0.000917;1.47;350
666;453;0.0403;0.0099;0.000921;1.48;350
668;453;0.0404;0.0099;0.000923;1.48;350
670;453;0.0404;0.0099;0.000922;1.48;350
672;453;0.0405;0.0099;0.000928;1.48;350
674;453;0.0406;0.0099;0.000928;1.48;350
676;452;0.0406;0.0099;0.000928;1.48;350
678;452;0.0407;0.0100;0.000929;1.48;350
680;452;0.0407;0.0100;0.000927;1.49;350
682;452;0.0408;0.0100;0.000933;1.48;350
684;452;0.0409;0.0100;0.000938;1.49;350
686;452;0.0409;0.0100;0.000934;1.49;350
688;452;0.041;0.0100;0.000928;1.49;350
690;452;0.0411;0.0101;0.000929;1.49;350
692;452;0.0411;0.0101;0.000945;1.49;350
694;452;0.0412;0.0101;0.000952;1.49;350
696;451;0.0412;0.0101;0.000948;1.49;350
698;451;0.0413;0.0101;0.000954;1.49;350
700;451;0.0414;0.0101;0.000962;1.49;350
702;451;0.0414;0.0101;0.000951;1.5;350
704;451;0.0415;0.0102;0.000948;1.5;350
706;451;0.0415;0.0102;0.000965;1.5;350
708;451;0.0416;0.0102;0.000969;1.5;350
710;451;0.0417;0.0102;0.000954;1.5;350
712;451;0.0417;0.0102;0.000965;1.5;350
714;450;0.0418;0.0102;0.000972;1.51;350
716;450;0.0419;0.0102;0.000971;1.5;350
718;450;0.0419;0.0103;0.000968;1.5;350
720;450;0.042;0.0103;0.000977;1.5;350
722;450;0.042;0.0103;0.000994;1.51;350
724;450;0.0421;0.0103;0.000986;1.51;350
726;450;0.0422;0.0103;0.001;1.51;350
728;450;0.0422;0.0103;0.00101;1.51;350
730;450;0.0423;0.0103;0.00101;1.51;350
732;449;0.0423;0.0103;0.000996;1.51;350
734;449;0.0424;0.0103;0.00102;1.52;350
736;449;0.0425;0.0104;0.00103;1.52;350
738;449;0.0425;0.0104;0.00102;1.52;350
740;449;0.0426;0.0104;0.00104;1.52;350
742;449;0.0427;0.0104;0.00104;1.52;350
744;449;0.0427;0.0104;0.00103;1.52;350
746;449;0.0428;0.0104;0.00105;1.52;350
748;448;0.0428;0.0104;0.00105;1.52;350
750;448;0.0429;0.0105;0.00104;1.52;350
752;448;0.043;0.0105;0.00106;1.52;350
754;448;0.043;0.0105;0.00107;1.52;350
756;448;0.0431;0.0105;0.00105;1.52;350
758;448;0.0431;0.0105;0.00106;1.52;350
760;448;0.0432;0.0105;0.00106;1.52;350
762;447;0.0433;0.0105;0.00106;1.53;350
764;447;0.0433;0.0106;0.00103;1.53;350
766;447;0.0434;0.0106;0.00105;1.53;350
768;447;0.0435;0.0106;0.00106;1.53;350
770;447;0.0435;0.0106;0.00106;1.53;350
772;447;0.0436;0.0106;0.00107;1.53;350
774;447;0.0436;0.0106;0.00107;1.53;350
776;446;0.0437;0.0107;0.00106;1.53;350
778;446;0.0438;0.0106;0.00108;1.53;350
780;446;0.0438;0.0107;0.00109;1.53;350
782;446;0.0439;0.0107;0.00108;1.54;350
784;446;0.0439;0.0107;0.0011;1.53;350
786;446;0.044;0.0107;0.00109;1.53;350
788;446;0.0441;0.0107;0.0011;1.53;350
790;446;0.0441;0.0107;0.00111;1.53;350
792;445;0.0442;0.0108;0.0011;1.53;350
794;445;0.0442;0.0108;0.00112;1.53;350
796;445;0.0443;0.0108;0.00111;1.54;350
798;445;0.0444;0.0108;0.0011;1.54;350
800;445;0.0444;0.0108;0.00112;1.53;350
802;445;0.0445;0.0108;0.00112;1.54;350
804;444;0.0446;0.0108;0.0011;1.53;350
806;444;0.0446;0.0109;0.00111;1.54;350
808;444;0.0447;0.0109;0.00113;1.54;350
810;444;0.0447;0.0109;0.00113;1.54;350
812;444;0.0448;0.0109;0.00113;1.54;350
814;444;0.0449;0.0109;0.00114;1.54;350
816;443;0.0449;0.0109;0.00114;1.54;350
818;443;0.045;0.0109;0.00113;1.53;350
820;443;0.045;0.0109;0.00114;1.54;350
822;443;0.0451;0.0109;0.00114;1.54;350
824;443;0.0452;0.0110;0.00113;1.54;350
826;442;0.0452;0.0110;0.00115;1.54;350
828;442;0.0453;0.0110;0.00115;1.54;350
830;442;0.0454;0.0110;0.00115;1.54;350
832;442;0.0454;0.0110;0.00116;1.54;350
834;442;0.0455;0.0110;0.00115;1.54;350
836;442;0.0455;0.0110;0.00117;1.55;350
838;441;0.0456;0.0110;0.00117;1.54;350
840;441;0.0457;0.0110;0.00118;1.54;350
842;441;0.0457;0.0111;0.00118;1.54;350
844;441;0.0458;0.0111;0.00117;1.54;350
846;441;0.0458;0.0111;0.00118;1.54;350
848;441;0.0459;0.0111;0.0012;1.54;350
850;440;0.046;0.0111;0.00119;1.54;350
852;440;0.046;0.0111;0.00119;1.54;350
854;440;0.0461;0.0111;0.0012;1.54;350
856;440;0.0462;0.0111;0.0012;1.54;350
858;440;0.0462;0.0112;0.00119;1.54;350
860;440;0.0463;0.0112;0.0012;1.54;350
862;440;0.0463;0.0113;0.00119;1.53;350
864;439;0.0464;0.0113;0.0012;1.54;350
866;439;0.0465;0.0113;0.0012;1.54;350
868;439;0.0465;0.0113;0.00119;1.54;350
870;439;0.0466;0.0113;0.00123;1.54;350
872;439;0.0466;0.0113;0.00122;1.54;350
874;439;0.0467;0.0114;0.00122;1.54;350
876;439;0.0468;0.0114;0.00122;1.55;350
878;438;0.0468;0.0114;0.00124;1.54;350
880;438;0.0469;0.0114;0.00124;1.55;350
882;438;0.0469;0.0114;0.00126;1.54;350
884;438;0.047;0.0114;0.00124;1.55;350
886;438;0.0471;0.0114;0.00125;1.54;350
888;438;0.0471;0.0114;0.00126;1.54;350
890;438;0.0472;0.0114;0.00126;1.55;350
892;438;0.0473;0.0114;0.00127;1.54;350
894;437;0.0473;0.0114;0.00128;1.54;350
896;437;0.0474;0.0115;0.00127;1.55;350
898;437;0.0474;0.0115;0.00128;1.55;350
900;437;0.0475;0.0115;0.00128;1.55;350
902;437;0.0476;0.0115;0.00129;1.54;350
904;437;0.0476;0.0115;0.00129;1.55;350
906;437;0.0477;0.0115;0.00129;1.55;350
908;436;0.0477;0.0115;0.00131;1.55;350
910;436;0.0478;0.0116;0.00128;1.55;350
912;436;0.0479;0.0115;0.00133;1.54;350
914;436;0.0479;0.0116;0.00131;1.55;350
916;436;0.048;0.0116;0.00132;1.55;350
918;436;0.0481;0.0116;0.00133;1.55;350
920;436;0.0481;0.0116;0.00133;1.55;350
922;435;0.0482;0.0116;0.00132;1.55;350
924;435;0.0482;0.0116;0.00131;1.55;350
926;435;0.0483;0.0116;0.00134;1.55;350
928;435;0.0484;0.0117;0.00133;1.55;350
930;435;0.0484;0.0117;0.00134;1.55;350
932;435;0.0485;0.0117;0.00134;1.55;350
934;435;0.0485;0.0117;0.00134;0.775;350
936;434;0.0485;0.0117;0.00134;0.772;350
938;434;0.0485;0.0117;0.00135;0.773;350
940;434;0.0485;0.0117;0.00133;0.772;350
942;434;0.0485;0.0117;0.00134;0.773;350
944;434;0.0485;0.0117;0.00133;0.773;350
946;434;0.0485;0.0117;0.00135;0.772;350
948;434;0.0485;0.0117;0.00135;0.776;350
950;434;0.0485;0.0117;0.00135;0.774;350
952;434;0.0485;0.0117;0.00136;0.773;350
954;434;0.0485;0.0117;0.00136;0.776;350
956;434;0.0485;0.0116;0.00138;0.773;350
958;434;0.0485;0.0117;0.00136;0.775;350
960;434;0.0485;0.0116;0.00137;0.774;350
962;434;0.0485;0.0117;0.00136;0.777;350
964;434;0.0485;0.0116;0.00139;0.777;350
966;434;0.0485;0.0116;0.0014;0.777;350
968;434;0.0485;0.0116;0.00138;0.781;350
970;434;0.0485;0.0116;0.0014;0.782;350
972;435;0.0485;0.0116;0.0014;0.784;350
974;435;0.0485;0.0116;0.0014;0.785;350
976;435;0.0485;0.0116;0.0014;0.786;350
978;435;0.0485;0.0116;0.00138;0.788;350
980;436;0.0485;0.0116;0.00138;0.789;350
982;436;0.0485;0.0116;0.00138;0.792;350
984;436;0.0485;0.0116;0.0014;0.792;350
986;436;0.0485;0.0116;0.00139;0.794;350
988;437;0.0485;0.0116;0.0014;0.797;350
990;437;0.0485;0.0116;0.00139;0.797;350
992;437;0.0485;0.0116;0.00139;0.801;350
994;438;0.0485;0.0116;0.0014;0.805;350
996;438;0.0485;0.0116;0.0014;0.811;350
998;439;0.0485;0.0116;0.00141;0.811;350
1000;439;0.0485;0.0116;0.0014;0.812;350
1002;439;0.0485;0.0116;0.00142;0.815;350
1004;440;0.0485;0.0116;0.0014;0.818;350
1006;440;0.0485;0.0116;0.00143;0.821;350
1008;441;0.0485;0.0116;0.00144;0.824;350
1010;441;0.0485;0.0116;0.00144;0.827;350
1012;441;0.0485;0.0116;0.00143;0.83;350
1014;442;0.0485;0.0116;0.00142;0.831;350
1016;442;0.0485;0.0116;0.00142;0.834;350
1018;443;0.0485;0.0116;0.00143;0.836;350
1020;443;0.0485;0.0116;0.00143;0.837;350
1022;443;0.0485;0.0116;0.00144;0.841;350
1024;444;0.0485;0.0116;0.00143;0.841;350
1026;444;0.0485;0.0116;0.00144;0.844;350
1028;445;0.0485;0.0116;0.00143;0.845;350
1030;445;0.0485;0.0116;0.00142;0.848;350
1032;445;0.0485;0.0116;0.00143;0.851;350
1034;446;0.0485;0.0116;0.00144;0.856;350
1036;446;0.0485;0.0116;0.00144;0.859;350
1038;446;0.0485;0.0116;0.00143;0.861;350
1040;447;0.0485;0.0116;0.00143;0.862;350
1042;447;0.0485;0.0116;0.00144;0.868;350
1044;448;0.0485;0.0116;0.00144;0.868;350
1046;448;0.0485;0.0116;0.00145;0.874;350
1048;448;0.0485;0.0116;0.00146;0.874;350
1050;448;0.0485;0.0116;0.00145;0.876;350
1052;449;0.0485;0.0116;0.00142;0.877;350
1054;449;0.0485;0.0116;0.00145;0.88;350
1056;449;0.0485;0.0116;0.00145;0.883;350
1058;449;0.0485;0.0116;0.00146;0.885;350
1060;449;0.0485;0.0116;0.00146;0.886;350
1062;449;0.0485;0.0116;0.00145;0.886;350
1064;450;0.0485;0.0116;0.00145;0.886;350
1066;450;0.0485;0.0115;0.00146;0.888;350
1068;450;0.0485;0.0115;0.00147;0.889;350
1070;450;0.0485;0.0115;0.00147;0.892;350
1072;450;0.0485;0.0115;0.00147;0.894;350
1074;450;0.0485;0.0116;0.00145;0.895;350
1076;451;0.0485;0.0115;0.00146;0.898;350
1078;451;0.0485;0.0116;0.00146;0.899;350
1080;451;0.0485;0.0116;0.00146;0.902;350
1082;451;0.0485;0.0115;0.00147;0.902;350
1084;451;0.0485;0.0116;0.00144;0.906;350
1086;452;0.0485;0.0115;0.00147;0.907;350
1088;452;0.0485;0.0116;0.00146;0.909;350
1090;452;0.0485;0.0115;0.00147;0.912;350
1092;452;0.0485;0.0115;0.00148;0.913;350
1094;453;0.0485;0.0115;0.00147;0.917;350
1096;453;0.0485;0.0115;0.00147;0.918;350
1098;453;0.0485;0.0115;0.00147;0.922;350
1100;454;0.0485;0.0115;0.00149;0.924;350
1102;454;0.0485;0.0115;0.00149;0.926;350
1104;454;0.0485;0.0115;0.00149;0.929;350
1106;454;0.0485;0.0115;0.00148;0.93;350
1108;455;0.0485;0.0116;0.00146;0.934;350
1110;455;0.0485;0.0115;0.00147;0.939;350
1112;455;0.0485;0.0115;0.00147;0.944;350
1114;456;0.0485;0.0115;0.00148;0.947;350
1116;456;0.0485;0.0115;0.00148;0.95;350
1118;457;0.0485;0.0115;0.00148;0.953;350
1120;457;0.0485;0.0115;0.00146;0.956;350
1122;458;0.0485;0.0115;0.00148;0.956;350
1124;458;0.0485;0.0115;0.00149;0.961;350
1126;459;0.0485;0.0115;0.00149;0.962;350
1128;459;0.0485;0.0115;0.0015;0.967;350
1130;460;0.0485;0.0115;0.00151;0.968;350
1132;460;0.0485;0.0115;0.0015;0.977;350
1134;460;0.0485;0.0115;0.0015;0.978;350
1136;461;0.0485;0.0115;0.00149;0.983;350
1138;461;0.0485;0.0115;0.00149;0.986;350
1140;462;0.0485;0.0115;0.0015;0.988;350
1142;462;0.0485;0.0115;0.00149;0.992;350
1144;463;0.0485;0.0115;0.00147;0.996;350
1146;463;0.0485;0.0116;0.00146;0.996;350
1148;463;0.0485;0.0116;0.00146;1;350
1150;464;0.0485;0.0115;0.00147;1;350
1152;464;0.0485;0.0115;0.00147;1;350
1154;464;0.0485;0.0115;0.00148;1.01;350
1156;464;0.0485;0.0115;0.00149;1.01;350
1158;464;0.0485;0.0115;0.00149;1.01;350
1160;465;0.0485;0.0115;0.00149;1.01;350
1162;465;0.0485;0.0115;0.0015;1.02;350
1164;465;0.0485;0.0115;0.00147;1.02;350
1166;465;0.0485;0.0115;0.00151;1.02;350
1168;465;0.0485;0.0115;0.00149;1.03;350
1170;466;0.0485;0.0115;0.0015;1.03;350
1172;466;0.0485;0.0115;0.0015;1.03;350
1174;466;0.0485;0.0115;0.00152;1.03;350
1176;467;0.0485;0.0115;0.00152;1.03;350
1178;467;0.0485;0.0115;0.00152;1.04;350
1180;467;0.0485;0.0115;0.00153;1.04;350
1182;468;0.0485;0.0115;0.00153;1.05;350
1184;468;0.0485;0.0115;0.00151;1.05;350
1186;468;0.0485;0.0115;0.00153;1.05;350
1188;469;0.0485;0.0115;0.00152;1.06;350
1190;469;0.0485;0.0115;0.00153;1.06;350
1192;469;0.0485;0.0115;0.00152;1.06;350
1194;470;0.0485;0.0115;0.00153;1.07;350
1196;470;0.0485;0.0115;0.00153;1.07;350
1198;470;0.0485;0.0115;0.00152;1.07;350
1200;470;0.0485;0.0115;0.00151;1.08;350
1202;470;0.0485;0.0115;0.00152;1.08;350
1204;470;0.0485;0.0115;0.00152;1.08;350
1206;471;0.0485;0.0115;0.00152;1.08;350
1208;471;0.0485;0.0115;0.00153;1.08;350
1210;471;0.0485;0.0115;0.00153;1.08;350
1212;471;0.0485;0.0115;0.00152;1.08;350
1214;471;0.0485;0.0115;0.00153;1.09;350
1216;471;0.0485;0.0115;0.00151;1.09;350
1218;471;0.0485;0.0115;0.00153;1.09;350
1220;471;0.0485;0.0115;0.00153;1.09;350
1222;471;0.0485;0.0115;0.00154;1.09;350
1224;471;0.0485;0.0115;0.00154;1.1;350
1226;471;0.0485;0.0115;0.00154;1.1;350
1228;471;0.0485;0.0115;0.00155;1.1;350
1230;471;0.0485;0.0115;0.00155;1.1;350
1232;471;0.0485;0.0115;0.00154;1.1;350
1234;471;0.0485;0.0114;0.00156;1.1;350
1236;470;0.0485;0.0115;0.00156;1.1;350
1238;470;0.0485;0.0115;0.00155;1.1;350
1240;470;0.0485;0.0115;0.00155;1.11;350
1242;470;0.0485;0.0115;0.00155;1.11;350
1244;470;0.0485;0.0115;0.00156;1.11;350
1246;470;0.0485;0.0115;0.00155;1.11;350
1248;470;0.0485;0.0115;0.00154;1.11;350
1250;470;0.0485;0.0115;0.00154;1.11;350
1252;470;0.0485;0.0115;0.00154;1.11;350
1254;470;0.0485;0.0115;0.00154;1.11;350
1256;470;0.0485;0.0115;0.00155;1.12;350
1258;470;0.0485;0.0115;0.00155;1.12;350
1260;470;0.0485;0.0115;0.00156;1.12;350
1262;470;0.0485;0.0114;0.00156;1.12;350
1264;470;0.0485;0.0115;0.00156;1.12;350
1266;470;0.0485;0.0115;0.00155;1.12;350
1268;470;0.0485;0.0115;0.00154;1.13;350
1270;470;0.0485;0.0115;0.00153;1.13;350
1272;470;0.0485;0.0115;0.00153;1.13;350
1274;470;0.0485;0.0115;0.00154;1.13;350
1276;470;0.0485;0.0115;0.00154;1.13;350
1278;470;0.0485;0.0115;0.00153;1.13;350
1280;470;0.0485;0.0115;0.00156;1.14;350
1282;470;0.0485;0.0114;0.00157;1.14;350
1284;470;0.0485;0.0115;0.00155;1.14;350
1286;470;0.0485;0.0115;0.00156;1.14;350
1288;470;0.0485;0.0115;0.00156;1.14;350
1290;470;0.0485;0.0114;0.00156;1.14;350
1292;470;0.0485;0.0114;0.00157;1.14;350
1294;470;0.0485;0.0114;0.00158;1.15;350
1296;470;0.0485;0.0114;0.00157;1.15;350
1298;470;0.0485;0.0115;0.00155;1.15;350
1300;470;0.0485;0.0114;0.00157;1.15;350
1302;470;0.0485;0.0114;0.00157;1.15;350
1304;470;0.0485;0.0114;0.00157;1.15;350
1306;470;0.0485;0.0114;0.00156;1.15;350
1308;469;0.0485;0.0114;0.00156;1.15;350
1310;469;0.0485;0.0115;0.00155;1.15;350
1312;469;0.0485;0.0114;0.00157;1.16;350
1314;469;0.0485;0.0114;0.00157;1.16;350
1316;469;0.0485;0.0115;0.00156;1.16;350
1318;469;0.0485;0.0114;0.00157;1.16;350
1320;469;0.0485;0.0114;0.00156;1.16;350
1322;470;0.0485;0.0113;0.00252;1.16;490
1324;470;0.0484;0.0112;0.00252;0;490
1326;470;0.0483;0.0112;0.00251;0;490
1328;470;0.0482;0.0111;0.00251;0;350
1330;470;0.0481;0.0111;0.0025;0;350
1332;470;0.048;0.0110;0.0025;0;350
1334;470;0.0479;0.0110;0.00249;0;350
1336;471;0.0478;0.0109;0.00249;0;350
1338;471;0.0477;0.0109;0.00248;0;350
1340;471;0.0476;0.0108;0.00248;0;350
1342;471;0.0475;0.0108;0.00247;0;350
1344;471;0.0474;0.0107;0.00247;0;350
1346;471;0.0473;0.0107;0.00246;0;350
1348;471;0.0472;0.0107;0.00246;0;350
1350;471;0.0471;0.0100;0.00245;0;350
1352;471;0.047;0.0100;0.00245;0;350
1354;471;0.0469;0.0100;0.00244;0;350
1356;471;0.0468;0.0100;0.00244;0;448
1358;471;0.0467;0.0099;0.00243;0;490
1360;471;0.0466;0.0099;0.00243;0;490
1362;471;0.0465;0.0099;0.00242;0;490
1364;471;0.0464;0.0099;0.00242;0;490
1366;471;0.0463;0.0099;0.00241;0;378
1368;471;0.0462;0.0098;0.00241;0;350
1370;471;0.0461;0.0098;0.0024;0;350
1372;471;0.046;0.0098;0.0024;0;350
1374;471;0.0459;0.0098;0.00239;0;350
1376;471;0.0458;0.0098;0.00239;0;350
1378;471;0.0457;0.0097;0.00238;0;350
1380;471;0.0456;0.0097;0.00238;0;350
1382;471;0.0455;0.0097;0.00237;0;350
1384;471;0.0454;0.0097;0.00237;0;350
1386;470;0.0452;0.0093;0.00265;0;350
1388;470;0.0451;0.0093;0.00264;0;350
1390;470;0.0451;0.0093;0.00262;0;350
1392;470;0.0449;0.0092;0.00263;0;350
1394;470;0.0449;0.0092;0.00261;0;350
1396;470;0.0448;0.0092;0.00262;0;406
1398;470;0.0446;0.0092;0.0026;0;490
1400;470;0.0445;0.0091;0.00262;0;490
1402;470;0.0444;0.0091;0.00259;0;490
1404;470;0.0443;0.0091;0.0026;0;490
1406;470;0.0442;0.0091;0.00258;0;420
1408;469;0.0441;0.0091;0.00258;0;350
1410;469;0.044;0.0090;0.00257;0;350
1412;469;0.0439;0.0090;0.00256;0;350
1414;469;0.0438;0.0090;0.00255;0;350
1416;469;0.0437;0.0090;0.00254;0;350
1418;469;0.0436;0.0090;0.00254;0;350
1420;469;0.0435;0.0090;0.00252;0;350
1422;469;0.0434;0.0089;0.00252;0;350
1424;468;0.0433;0.0090;0.0025;0;350
1426;468;0.0432;0.0089;0.00251;0;350
1428;468;0.0431;0.0089;0.00248;0;350
1430;468;0.043;0.0089;0.00248;0;350
1432;468;0.0429;0.0089;0.00246;0;350
1434;468;0.0428;0.0089;0.00244;0;350
1436;467;0.0427;0.0088;0.00245;0;350
1438;467;0.0426;0.0088;0.00243;0;476
1440;467;0.0425;0.0088;0.00243;0;490
1442;467;0.0424;0.0088;0.00241;0;490
1444;467;0.0423;0.0088;0.00241;0;490
1446;466;0.0422;0.0088;0.0024;0;490
1448;466;0.0421;0.0088;0.00237;0;378
1450;466;0.042;0.0087;0.00239;0;350
1452;466;0.0419;0.0087;0.00237;0;350
1454;465;0.0418;0.0087;0.00237;0;350
1456;465;0.0417;0.0087;0.00237;0;350
1458;465;0.0416;0.0087;0.00233;0;350
1460;465;0.0415;0.0086;0.00235;0;350
1462;465;0.0414;0.0086;0.00233;0;350
1464;464;0.0413;0.0086;0.00232;0;350
1466;464;0.0412;0.0086;0.00232;0;350
1468;464;0.0411;0.0086;0.00232;0;350
1470;464;0.041;0.0085;0.00231;0;350
1472;463;0.0409;0.0085;0.0023;0;350
1474;463;0.0408;0.0085;0.00228;0;350
1476;463;0.0407;0.0085;0.00229;0;406
1478;463;0.0405;0.0085;0.00228;0;490
1480;462;0.0404;0.0085;0.00227;0;490
1482;462;0.0403;0.0085;0.00224;0;490
1484;462;0.0402;0.0084;0.00226;0;490
1486;462;0.0401;0.0084;0.00226;0;420
1488;461;0.04;0.0084;0.00224;0;350
1490;461;0.0399;0.0084;0.00223;0;350
1492;461;0.0398;0.0083;0.00222;0;350
1494;460;0.0397;0.0083;0.00223;0;350
1496;460;0.0396;0.0083;0.00222;0;350
1498;460;0.0395;0.0083;0.00219;0;350
1500;459;0.0394;0.0083;0.0022;0;350
1502;459;0.0393;0.0082;0.0022;0;350
1504;459;0.0392;0.0082;0.00218;0;350
1506;458;0.0391;0.0082;0.00216;0;350
1508;458;0.039;0.0082;0.00218;0;350
1510;458;0.0389;0.0082;0.00216;0;350
1512;457;0.0388;0.0082;0.00213;0;350
1514;457;0.0387;0.0081;0.00214;0;434
1516;457;0.0386;0.0081;0.00214;0;490
1518;456;0.0385;0.0081;0.00213;0;490
1520;456;0.0384;0.0081;0.00212;0;490
1522;455;0.0383;0.0081;0.00211;0;490
1524;455;0.0382;0.0080;0.00212;0;392
1526;455;0.0381;0.0080;0.00211;0;350
1528;454;0.038;0.0080;0.0021;0;350
1530;454;0.0379;0.0080;0.00209;0;350
1532;453;0.0378;0.0080;0.00206;0;350
1534;453;0.0377;0.0079;0.00207;0;350
1536;453;0.0376;0.0079;0.00208;0;350
1538;452;0.0375;0.0079;0.00207;0;350
1540;452;0.0374;0.0079;0.00206;0;350
1542;451;0.0373;0.0079;0.00205;0;350
1544;451;0.0372;0.0078;0.00203;0;406
1546;451;0.0371;0.0078;0.00203;0;490
1548;451;0.037;0.0078;0.00204;0;490
1550;451;0.0369;0.0078;0.00204;0;490
1552;451;0.0368;0.0077;0.00203;0;490
1554;451;0.0367;0.0077;0.00203;0;420
1556;451;0.0366;0.0077;0.00202;0;350
1558;451;0.0365;0.0077;0.00201;0;350
1560;451;0.0363;0.0077;0.00199;0;350
1562;451;0.0362;0.0076;0.00198;0;350
1564;451;0.0361;0.0076;0.00197;0;350
1566;451;0.036;0.0076;0.00196;0;350
1568;450;0.036;0.0076;0.00195;0;350
1570;450;0.0358;0.0076;0.00195;0;350
1572;450;0.0357;0.0076;0.00194;0;350
1574;449;0.0356;0.0075;0.00194;0;350
1576;449;0.0355;0.0075;0.00193;0;350
1578;448;0.0354;0.0075;0.00193;0;350
1580;448;0.0353;0.0075;0.00192;0;350
1582;447;0.0352;0.0074;0.00191;0;378
1584;447;0.0351;0.0074;0.00191;0;490
1586;446;0.035;0.0074;0.00189;0;490
1588;446;0.0349;0.0074;0.00188;0;490
1590;445;0.0348;0.0074;0.00187;0;490
1592;445;0.0347;0.0074;0.00186;0;448
1594;445;0.0346;0.0073;0.00187;0;350
1596;444;0.0345;0.0073;0.00187;0;350
1598;444;0.0344;0.0073;0.00187;0;350
1600;443;0.0343;0.0073;0.00185;0;350
1602;443;0.0342;0.0072;0.00185;0;350
1604;443;0.0341;0.0072;0.00183;0;350
1606;442;0.034;0.0072;0.00182;0;350
1608;442;0.0339;0.0072;0.00182;0;350
1610;441;0.0338;0.0072;0.0018;0;350
1612;441;0.0337;0.0071;0.0018;0;350
1614;440;0.0336;0.0071;0.0018;0;350
1616;440;0.0335;0.0071;0.0018;0;350
1618;439;0.0334;0.0071;0.0018;0;378
1620;438;0.0333;0.0071;0.00178;0;490
1622;438;0.0332;0.0070;0.00177;0;490
1624;437;0.0331;0.0070;0.00176;0;490
1626;437;0.033;0.0070;0.00175;0;490
1628;436;0.0329;0.0070;0.00175;0;462
1630;436;0.0328;0.0070;0.00175;0;350
1632;435;0.0327;0.0069;0.00175;0;350
1634;435;0.0326;0.0069;0.00174;0;350
1636;434;0.0325;0.0069;0.00173;0;350
1638;434;0.0324;0.0069;0.00172;0;350
1640;433;0.0323;0.0069;0.0017;0;350
1642;433;0.0322;0.0068;0.0017;0;350
1644;432;0.0321;0.0068;0.00169;0;350
1646;431;0.0319;0.0068;0.00169;0;350
1648;430;0.0318;0.0068;0.00169;0;350
1650;429;0.0317;0.0067;0.00168;0;350
1652;428;0.0316;0.0067;0.00167;0;364
1654;428;0.0315;0.0067;0.00166;0;490
1656;427;0.0314;0.0067;0.00164;0;490
1658;425;0.0313;0.0067;0.00163;0;490
1660;424;0.0312;0.0067;0.00163;0;490
1662;423;0.0311;0.0066;0.00164;0;476
1664;422;0.031;0.0066;0.00163;0;350
1666;422;0.0309;0.0066;0.00162;0;350
1668;421;0.0308;0.0066;0.00161;0;350
1670;420;0.0307;0.0065;0.0016;0;350
1672;419;0.0306;0.0065;0.0016;0;350
1674;418;0.0305;0.0065;0.0016;0;350
1676;418;0.0304;0.0065;0.0016;0;350
1678;417;0.0303;0.0064;0.00159;0;350
1680;417;0.0302;0.0064;0.00158;0;350
1682;416;0.0301;0.0064;0.00156;0;350
1684;416;0.03;0.0064;0.00157;0;350
1686;415;0.0299;0.0064;0.00156;0;420
1688;415;0.0298;0.0063;0.00156;0;490
1690;414;0.0297;0.0063;0.00154;0;490
1692;413;0.0296;0.0063;0.00153;0;490
1694;413;0.0295;0.0063;0.00153;0;490
1696;413;0.0294;0.0063;0.00153;0;420
1698;412;0.0293;0.0062;0.00152;0;350
1700;412;0.0292;0.0062;0.00151;0;350
1702;411;0.0291;0.0062;0.0015;0;350
1704;411;0.029;0.0062;0.00149;0;350
1706;410;0.0289;0.0062;0.00149;0;350
1708;410;0.0288;0.0061;0.00149;0;350
1710;409;0.0287;0.0061;0.00149;0;350
1712;409;0.0286;0.0061;0.00148;0;350
1714;408;0.0285;0.0061;0.00147;0;350
1716;408;0.0284;0.0061;0.00145;0;350
1718;407;0.0283;0.0060;0.00145;0;350
1720;407;0.0282;0.0060;0.00145;0;350
1722;407;0.0281;0.0060;0.00144;0;490
1724;406;0.028;0.0060;0.00143;0;490
1726;406;0.0279;0.0060;0.00142;0;490
1728;405;0.0278;0.0059;0.00141;0;490
1730;405;0.0277;0.0059;0.00141;0;490
1732;404;0.0276;0.0059;0.0014;0;350
1734;404;0.0275;0.0059;0.00139;0;350
1736;404;0.0273;0.0058;0.00138;0;350
1738;403;0.0272;0.0058;0.00138;0;350
1740;403;0.0271;0.0058;0.00138;0;350
1742;403;0.027;0.0058;0.00137;0;350
1744;402;0.0269;0.0058;0.00135;0;350
1746;402;0.0268;0.0057;0.00134;0;350
1748;402;0.0267;0.0057;0.00135;0;350
1750;401;0.0266;0.0057;0.00134;0;350
1752;401;0.0265;0.0057;0.00133;0;350
1754;401;0.0264;0.0057;0.00132;0;406
1756;400;0.0263;0.0056;0.00131;0;490
1758;400;0.0262;0.0056;0.00131;0;490
1760;399;0.0261;0.0056;0.00131;0;490
1762;399;0.026;0.0056;0.0013;0;490
1764;399;0.0259;0.0055;0.00129;0;420
1766;398;0.0258;0.0055;0.00129;0;350
1768;398;0.0257;0.0055;0.00129;0;350
1770;398;0.0256;0.0055;0.00128;0;350
1772;398;0.0255;0.0054;0.00127;0;350
1774;397;0.0254;0.0054;0.00128;0;350
1776;397;0.0253;0.0054;0.00128;0;350
1778;397;0.0252;0.0054;0.00126;0;350
1780;396;0.0251;0.0053;0.00125;0;350
1782;396;0.025;0.0053;0.00126;0;420
1784;396;0.0249;0.0053;0.00125;0;490
1786;396;0.0248;0.0053;0.00123;0;490
1788;395;0.0247;0.0053;0.00124;0;490
1790;395;0.0246;0.0052;0.00122;0;490
1792;395;0.0245;0.0052;0.00121;0;420
1794;395;0.0244;0.0052;0.00121;0;350
1796;394;0.0243;0.0052;0.0012;0;350
1798;394;0.0242;0.0052;0.00118;0;350
1800;394;0.0241;0.0051;0.00118;0;350
1802;393;0.024;0.0051;0.00117;0;350
1804;393;0.0239;0.0051;0.00116;0;350
1806;393;0.0238;0.0051;0.00114;0;350
1808;393;0.0237;0.0051;0.00115;0;350
1810;392;0.0236;0.0050;0.00114;0;350
1812;392;0.0235;0.0050;0.00113;0;350
1814;392;0.0234;0.0050;0.00112;0;350
1816;392;0.0233;0.0050;0.00113;0;350
1818;392;0.0232;0.0049;0.00113;0;420
1820;391;0.023;0.0049;0.00112;0;490
1822;391;0.023;0.0049;0.0011;0;490
1824;391;0.0228;0.0049;0.00111;0;490
1826;391;0.0227;0.0048;0.0011;0;490
1828;390;0.0226;0.0048;0.0011;0;420
1830;390;0.0225;0.0048;0.00108;0;350
1832;390;0.0224;0.0048;0.00109;0;350
1834;390;0.0223;0.0048;0.00108;0;350
1836;390;0.0222;0.0047;0.00106;0;350
1838;390;0.0221;0.0047;0.00106;0;350
1840;389;0.022;0.0047;0.00106;0;350
1842;389;0.0219;0.0047;0.00105;0;350
1844;389;0.0218;0.0046;0.00104;0;350
1846;389;0.0217;0.0046;0.00105;0;350
1848;389;0.0216;0.0046;0.00104;0;448
1850;389;0.0215;0.0046;0.00103;0;490
1852;388;0.0214;0.0046;0.00103;0;490
1854;388;0.0213;0.0045;0.00103;0;490
1856;388;0.0212;0.0045;0.00102;0;490
1858;388;0.0211;0.0045;0.00101;0;392
1860;388;0.021;0.0045;0.00101;0;350
1862;388;0.0209;0.0044;0.001;0;350
1864;387;0.0208;0.0044;0.000982;0;350
1866;387;0.0207;0.0044;0.00098;0;350
1868;387;0.0206;0.0044;0.000973;0;350
1870;387;0.0205;0.0044;0.000959;0;350
1872;387;0.0204;0.0043;0.000952;0;350
1874;387;0.0203;0.0043;0.000953;0;350
1876;387;0.0202;0.0043;0.00094;0;350
1878;387;0.0201;0.0043;0.000927;0;350
1880;387;0.02;0.0042;0.000931;0;350
1882;387;0.0199;0.0042;0.00092;0;490
1884;386;0.0198;0.0042;0.000912;1.49;490
1886;386;0.0198;0.0042;0.000922;1.48;490
1888;386;0.0198;0.0042;0.000925;1.48;490
1890;386;0.0198;0.0042;0.000915;1.48;490
1892;386;0.0198;0.0042;0.00092;1.48;350
1894;386;0.0198;0.0042;0.000922;1.48;350
1896;386;0.0198;0.0042;0.000915;1.48;350
1898;386;0.0198;0.0042;0.000907;1.48;350
1900;386;0.0198;0.0042;0.000914;1.48;350
1902;386;0.0198;0.0042;0.000909;1.48;350
1904;386;0.0198;0.0042;0.0009;1.48;350
1906;386;0.0198;0.0042;0.000909;1.48;350
1908;385;0.0198;0.0042;0.000902;1.48;350
1910;385;0.0198;0.0042;0.000895;1.48;350
1912;385;0.0198;0.0042;0.000892;1.48;378
1914;385;0.0198;0.0042;0.000895;1.48;490
1916;385;0.0198;0.0042;0.00089;1.48;490
1918;385;0.0198;0.0043;0.000882;1.48;490
1920;385;0.0198;0.0042;0.000892;1.48;490
1922;385;0.0198;0.0043;0.000887;1.47;448
1924;385;0.0198;0.0043;0.000873;1.47;350
1926;385;0.0198;0.0043;0.000886;1.47;350
1928;385;0.0198;0.0043;0.000882;1.47;350
1930;385;0.0198;0.0043;0.000876;1.46;350
1932;385;0.0198;0.0043;0.000882;1.46;350
1934;385;0.0198;0.0043;0.000883;1.46;350
1936;385;0.0198;0.0043;0.000874;1.46;350
1938;385;0.0198;0.0043;0.000876;1.46;350
1940;385;0.0198;0.0043;0.000877;1.45;350
1942;385;0.0198;0.0043;0.000868;1.45;350
1944;385;0.0198;0.0043;0.00087;1.45;364
1946;385;0.0198;0.0043;0.00087;1.45;490
1948;385;0.0198;0.0043;0.00086;1.45;490
1950;385;0.0198;0.0043;0.000864;1.44;490
1952;384;0.0198;0.0043;0.000862;1.44;490
1954;384;0.0198;0.0043;0.000847;1.44;476
1956;384;0.0198;0.0043;0.000858;1.44;350
1958;384;0.0198;0.0043;0.000849;1.43;350
1960;384;0.0198;0.0043;0.000843;1.43;350
1962;384;0.0198;0.0043;0.000849;1.43;350
1964;384;0.0198;0.0043;0.000839;1.43;350
1966;385;0.0198;0.0043;0.000844;1.42;350
1968;385;0.0198;0.0043;0.000846;1.42;350
1970;385;0.0198;0.0043;0.000837;1.42;350
1972;385;0.0198;0.0043;0.000846;1.42;350
1974;385;0.0198;0.0043;0.000841;1.41;350
1976;385;0.0198;0.0043;0.000836;1.41;476
1978;385;0.0198;0.0043;0.000842;1.41;490
1980;385;0.0198;0.0043;0.000835;1.41;490
1982;385;0.0198;0.0043;0.000833;1.4;490
1984;385;0.0198;0.0043;0.000837;1.4;490
1986;385;0.0198;0.0043;0.000831;1.4;364
1988;385;0.0198;0.0043;0.000836;1.39;350
1990;385;0.0198;0.0043;0.00083;1.39;350
1992;385;0.0198;0.0043;0.000827;1.39;350
1994;385;0.0198;0.0043;0.000828;1.38;350
1996;385;0.0198;0.0043;0.00082;1.38;350
1998;385;0.0198;0.0043;0.000832;1.37;350
2000;385;0.0198;0.0043;0.000825;1.37;350
2002;385;0.0198;0.0043;0.000834;1.36;350
2004;385;0.0198;0.0043;0.000832;1.36;350
2006;385;0.0198;0.0043;0.000827;1.35;462
2008;385;0.0198;0.0043;0.000831;1.35;490
2010;384;0.0198;0.0043;0.000817;1.34;490
2012;384;0.0198;0.0043;0.000831;1.34;490
2014;384;0.0198;0.0043;0.000823;1.33;490
2016;385;0.0198;0.0043;0.000825;1.33;364
2018;385;0.0198;0.0043;0.000822;1.32;350
2020;385;0.0198;0.0043;0.000811;1.32;350
2022;385;0.0198;0.0043;0.000817;1.31;350
2024;385;0.0198;0.0043;0.000808;1.31;350
2026;385;0.0198;0.0043;0.000811;1.31;350
2028;385;0.0198;0.0043;0.000807;1.31;350
2030;385;0.0198;0.0043;0.000797;1.3;350
2032;385;0.0198;0.0043;0.000808;1.3;350
2034;385;0.0198;0.0043;0.000795;1.3;350
2036;385;0.0198;0.0043;0.000801;1.29;350
2038;385;0.0198;0.0043;0.000791;1.29;490
2040;385;0.0198;0.0043;0.000789;1.28;490
2042;385;0.0198;0.0043;0.000795;1.28;490
2044;385;0.0198;0.0043;0.00078;1.28;490
2046;385;0.0198;0.0043;0.000794;1.27;476
2048;385;0.0198;0.0043;0.000786;1.27;350
2050;385;0.0198;0.0043;0.000795;1.27;350
2052;385;0.0198;0.0043;0.000789;1.26;350
2054;385;0.0198;0.0043;0.000787;1.26;350
2056;385;0.0198;0.0043;0.00079;1.25;350
2058;385;0.0198;0.0043;0.000783;1.25;350
2060;385;0.0198;0.0043;0.000793;1.25;350
2062;385;0.0198;0.0043;0.000783;1.25;350
2064;385;0.0198;0.0043;0.000785;1.25;350
2066;385;0.0198;0.0043;0.000779;1.24;350
2068;385;0.0198;0.0044;0.000772;1.24;350
2070;385;0.0198;0.0043;0.000777;1.23;392
2072;385;0.0198;0.0044;0.000769;1.23;490
2074;385;0.0198;0.0044;0.000775;1.23;490
2076;385;0.0198;0.0044;0.000772;1.22;490
2078;385;0.0198;0.0044;0.000759;1.22;490
2080;385;0.0198;0.0044;0.000768;1.22;434
2082;385;0.0198;0.0044;0.000759;1.21;350
2084;385;0.0198;0.0044;0.000762;1.21;350
2086;385;0.0198;0.0044;0.000763;1.21;350
2088;385;0.0198;0.0044;0.000754;1.21;350
2090;385;0.0198;0.0044;0.000759;1.2;350
2092;385;0.0198;0.0044;0.000753;1.2;350
2094;385;0.0198;0.0044;0.000752;1.2;350
2096;385;0.0198;0.0044;0.000755;1.19;350
2098;385;0.0198;0.0044;0.000742;1.19;350
2100;385;0.0198;0.0044;0.000755;1.19;350
2102;385;0.0198;0.0044;0.000749;1.19;490
2104;385;0.0198;0.0044;0.000751;1.18;490
2106;385;0.0198;0.0044;0.000753;1.18;490
2108;385;0.0198;0.0044;0.000742;1.18;490
2110;385;0.0198;0.0044;0.000752;1.17;490
2112;385;0.0198;0.0044;0.000743;1.17;350
2114;385;0.0198;0.0044;0.000744;1.17;350
2116;385;0.0198;0.0044;0.000746;1.16;350
2118;385;0.0198;0.0044;0.000728;1.16;350
2120;385;0.0198;0.0044;0.000737;1.16;350
2122;386;0.0198;0.0044;0.000732;1.15;350
2124;386;0.0198;0.0044;0.00073;1.15;350
2126;386;0.0198;0.0044;0.000738;1.15;350
2128;386;0.0198;0.0044;0.000726;1.15;350
2130;386;0.0198;0.0044;0.000736;1.15;350
2132;386;0.0198;0.0044;0.000728;1.14;434
2134;386;0.0198;0.0044;0.000733;1.14;490
2136;386;0.0198;0.0044;0.000724;1.14;490
2138;386;0.0198;0.0044;0.000723;1.13;490
2140;386;0.0198;0.0044;0.000724;1.13;490
2142;386;0.0198;0.0044;0.000714;1.13;406
2144;386;0.0198;0.0044;0.000718;1.12;350
2146;386;0.0198;0.0044;0.000711;1.12;350
2148;386;0.0198;0.0044;0.00071;1.12;350
2150;387;0.0198;0.0044;0.000702;1.11;350
2152;387;0.0198;0.0044;0.000702;1.11;350
2154;387;0.0198;0.0044;0.000697;1.11;350
2156;387;0.0198;0.0044;0.000696;1.1;350
2158;387;0.0198;0.0044;0.000697;1.1;350
2160;387;0.0198;0.0044;0.000689;1.1;350
2162;387;0.0198;0.0044;0.000698;1.1;350
2164;387;0.0198;0.0044;0.000692;1.1;462
2166;387;0.0198;0.0044;0.000693;1.09;490
2168;387;0.0198;0.0044;0.000693;1.09;490
2170;387;0.0198;0.0044;0.000686;1.09;490
2172;387;0.0198;0.0044;0.000695;1.08;490
2174;387;0.0198;0.0044;0.000689;1.08;378
2176;387;0.0198;0.0044;0.000688;1.08;350
2178;387;0.0198;0.0044;0.000693;1.08;350
2180;388;0.0198;0.0044;0.000683;1.08;350
2182;388;0.0198;0.0044;0.000694;1.07;350
2184;388;0.0198;0.0044;0.000685;1.07;350
2186;388;0.0198;0.0044;0.000686;1.06;350
2188;388;0.0198;0.0044;0.000686;1.06;350
2190;388;0.0198;0.0044;0.000678;1.06;350
2192;388;0.0198;0.0044;0.000684;1.06;350
2194;388;0.0198;0.0044;0.000674;1.06;350
2196;388;0.0198;0.0044;0.00068;1.05;476
2198;388;0.0198;0.0044;0.000672;1.05;490
2200;389;0.0198;0.0044;0.00067;1.05;490
2202;389;0.0198;0.0044;0.000668;1.05;490
2204;389;0.0198;0.0044;0.000661;1.04;490
2206;389;0.0198;0.0044;0.000666;1.04;350
2208;389;0.0198;0.0045;0.000656;1.04;350
2210;389;0.0198;0.0045;0.00066;1.04;350
2212;389;0.0198;0.0045;0.000653;1.03;350
2214;389;0.0198;0.0045;0.000654;1.03;350
2216;389;0.0198;0.0045;0.000654;1.03;350
2218;389;0.0198;0.0045;0.000646;1.03;350
2220;389;0.0198;0.0045;0.000652;1.03;350
2222;389;0.0198;0.0045;0.000643;1.02;350
2224;389;0.0198;0.0045;0.00065;1.02;350
2226;389;0.0198;0.0045;0.000639;1.02;392
2228;389;0.0198;0.0045;0.000647;1.02;490
2230;389;0.0198;0.0045;0.00064;1.01;490
2232;390;0.0198;0.0045;0.000646;1.01;490
2234;390;0.0198;0.0045;0.00064;1.01;490
2236;390;0.0198;0.0045;0.000646;1.01;448
2238;390;0.0198;0.0045;0.000639;1.01;350
2240;390;0.0198;0.0045;0.000638;1;350
2242;390;0.0198;0.0045;0.000635;0.998;350
2244;390;0.0198;0.0045;0.000635;0.996;350
2246;390;0.0198;0.0045;0.000636;0.993;350
2248;390;0.0198;0.0045;0.000627;0.992;350
2250;390;0.0198;0.0045;0.000639;0.991;350
2252;390;0.0198;0.0045;0.000624;0.988;350
2254;390;0.0198;0.0045;0.000632;0.988;350
2256;390;0.0198;0.0045;0.000625;0.985;350
2258;390;0.0198;0.0045;0.00063;0.984;462
2260;390;0.0198;0.0045;0.000625;0.982;490
2262;390;0.0198;0.0045;0.000629;0.977;490
2264;390;0.0198;0.0045;0.000623;0.976;490
2266;391;0.0198;0.0045;0.000623;0.971;490
2268;391;0.0198;0.0045;0.000621;0.97;378
2270;391;0.0198;0.0045;0.000617;0.967;350
2272;391;0.0198;0.0045;0.000623;0.964;350
2274;391;0.0198;0.0045;0.000614;0.964;350
2276;391;0.0198;0.0045;0.000617;0.96;350
2278;391;0.0198;0.0045;0.000606;0.96;350
2280;391;0.0198;0.0045;0.000614;0.958;350
2282;391;0.0198;0.0045;0.000602;0.956;350
2284;391;0.0198;0.0045;0.000609;0.956;350
2286;391;0.0198;0.0045;0.000596;0.954;350
2288;391;0.0198;0.0045;0.000607;0.952;350
2290;391;0.0198;0.0045;0.000599;0.949;434
2292;391;0.0198;0.0045;0.000607;0.946;490
2294;391;0.0198;0.0045;0.000597;0.944;490
2296;391;0.0198;0.0045;0.000606;0.94;490
2298;392;0.0198;0.0045;0.000599;0.939;490
2300;392;0.0198;0.0045;0.000608;0.936;406
2302;392;0.0198;0.0045;0.000602;0.933;350
2304;392;0.0198;0.0045;0.000606;0.933;350
2306;392;0.0198;0.0045;0.0006;0.929;350
2308;392;0.0198;0.0045;0.000603;0.93;350
2310;392;0.0198;0.0045;0.000594;0.929;350
2312;392;0.0198;0.0045;0.0006;0.927;350
2314;392;0.0198;0.0045;0.000594;0.927;350
2316;392;0.0198;0.0045;0.000597;0.923;350
2318;392;0.0198;0.0045;0.0006;0.922;350
2320;392;0.0198;0.0045;0.00059;0.92;350
2322;392;0.0198;0.0045;0.000597;0.918;392
2324;392;0.0198;0.0045;0.000591;0.917;490
2326;392;0.0198;0.0045;0.000598;0.915;490
2328;393;0.0198;0.0045;0.000594;0.914;490
2330;393;0.0198;0.0045;0.000593;0.91;490
2332;393;0.0198;0.0045;0.000598;0.908;448
2334;393;0.0198;0.0045;0.000586;0.908;350
2336;393;0.0198;0.0045;0.000597;0.904;350
2338;393;0.0198;0.0045;0.000586;0.904;350
2340;393;0.0198;0.0045;0.000595;0.902;350
2342;393;0.0198;0.0045;0.000589;0.899;350
2344;393;0.0198;0.0045;0.000594;0.899;350
2346;393;0.0198;0.0045;0.000588;0.896;350
2348;393;0.0198;0.0045;0.000593;0.895;350
2350;393;0.0198;0.0045;0.000587;0.892;350
2352;393;0.0198;0.0045;0.000594;0.889;350
2354;392;0.0198;0.0045;0.000584;0.888;350
2356;392;0.0198;0.0045;0.00059;0.884;476
2358;392;0.0198;0.0045;0.000578;0.881;490
2360;392;0.0198;0.0045;0.000583;0.879;490
2362;392;0.0198;0.0045;0.00057;0.878;490
2364;392;0.0198;0.0045;0.000578;0.879;490
2366;392;0.0198;0.0045;0.00057;0.877;364
2368;392;0.0198;0.0045;0.000574;0.876;350
2370;392;0.0198;0.0045;0.000568;0.873;350
2372;392;0.0198;0.0045;0.000572;0.871;350
2374;392;0.0198;0.0045;0.000568;0.871;350
2376;392;0.0198;0.0045;0.000567;0.867;350
2378;392;0.0198;0.0045;0.000573;0.866;350
2380;392;0.0198;0.0045;0.000566;0.864;350
2382;392;0.0198;0.0045;0.000572;0.86;350
2384;393;0.0198;0.0045;0.000568;0.859;350
2386;393;0.0198;0.0045;0.000571;0.856;350
2388;393;0.0198;0.0045;0.000571;0.855;406
2390;393;0.0198;0.0045;0.000567;0.853;490
2392;393;0.0198;0.0045;0.000574;0.85;490
2394;393;0.0198;0.0045;0.000567;0.851;490
2396;393;0.0198;0.0045;0.000572;0.848;490
2398;393;0.0198;0.0045;0.000566;0.846;434
2400;393;0.0198;0.0045;0.000566;0.845;350
2402;393;0.0198;0.0045;0.000569;0.842;350
2404;393;0.0198;0.0045;0.000562;0.842;350
2406;393;0.0198;0.0045;0.00057;0.838;350
2408;393;0.0198;0.0045;0.000563;0.837;350
2410;393;0.0198;0.0045;0.000574;0.834;350
2412;393;0.0198;0.0045;0.000566;0.832;350
2414;393;0.0198;0.0045;0.000569;0.832;350
2416;393;0.0198;0.0045;0.00057;0.828;350
2418;393;0.0198;0.0045;0.000564;0.827;350
2420;394;0.0198;0.0045;0.000567;0.826;350
2422;394;0.0198;0.0045;0.000558;0.823;378
2424;394;0.0198;0.0045;0.000564;0.823;490
2426;394;0.0198;0.0045;0.000559;0.819;490
2428;394;0.0198;0.0045;0.00056;0.819;490
2430;394;0.0198;0.0045;0.000558;0.817;490
2432;394;0.0198;0.0045;0.000555;0.815;462
2434;394;0.0198;0.0045;0.000557;0.815;350
2436;394;0.0198;0.0045;0.000549;0.812;350
2438;394;0.0198;0.0045;0.000558;0.811;350
2440;395;0.0198;0.0045;0.000554;0.809;350
2442;395;0.0198;0.0045;0.000561;0.807;350
2444;395;0.0198;0.0045;0.000559;0.806;350
2446;395;0.0198;0.0045;0.000555;0.801;350
2448;395;0.0198;0.0045;0.000562;0.799;350
2450;395;0.0198;0.0045;0.000556;0.796;350
2452;395;0.0198;0.0045;0.000563;0.796;350
2454;395;0.0198;0.0045;0.000559;0.796;350
2456;396;0.0198;0.0045;0.000559;0.794;420
2458;396;0.0198;0.0045;0.000558;0.793;490
2460;396;0.0198;0.0045;0.00055;0.795;490
2462;396;0.0198;0.0045;0.000558;0.789;490
2464;396;0.0198;0.0045;0.000549;0.786;490
2466;396;0.0198;0.0045;0.000553;0.784;420
2468;396;0.0198;0.0045;0.000551;0.785;350
2470;396;0.0198;0.0045;0.000549;0.783;350
2472;396;0.0198;0.0045;0.000551;0.78;350
2474;397;0.0198;0.0046;0.00054;0.779;350
2476;397;0.0198;0.0045;0.000549;0.777;350
2478;397;0.0198;0.0045;0.000543;0.778;350
2480;397;0.0198;0.0045;0.000551;0.775;350
2482;397;0.0198;0.0045;0.00055;0.774;350
2484;397;0.0198;0.0045;0.000551;0.774;350
2486;397;0.0198;0.0045;0.000552;0.771;350
2488;397;0.0198;0.0045;0.000545;0.77;350
2490;397;0.0198;0.0045;0.000551;0.766;350
2492;397;0.0198;0.0045;0.000549;0.765;476
2494;397;0.0198;0.0045;0.00055;0.766;490
2496;397;0.0198;0.0045;0.000554;0.763;490
2498;397;0.0198;0.0045;0.000542;0.764;490
2500;397;0.0198;0.0045;0.000556;0.762;490
2502;397;0.0198;0.0045;0.000551;0.759;378
2504;398;0.0198;0.0045;0.000545;0.756;350
2506;398;0.0198;0.0045;0.000548;0.753;350
2508;398;0.0198;0.0045;0.000544;0.753;350
2510;398;0.0198;0.0045;0.000542;0.754;350
2512;398;0.0198;0.0045;0.000545;0.752;350
2514;398;0.0198;0.0046;0.000534;0.752;350
2516;398;0.0198;0.0046;0.000537;0.747;350
2518;398;0.0198;0.0046;0.000539;0.747;350
2520;398;0.0198;0.0046;0.000525;0.744;350
2522;398;0.0198;0.0046;0.000535;0.742;350
2524;398;0.0198;0.0046;0.000536;0.743;350
2526;398;0.0198;0.0046;0.000532;0.742;350
2528;398;0.0198;0.0046;0.000535;0.741;350
2530;398;0.0198;0.0046;0.000531;0.736;462
2532;398;0.0198;0.0046;0.000531;0.734;490
2534;398;0.0198;0.0046;0.000534;0.734;490
2536;398;0.0198;0.0046;0.000532;0.732;490
2538;398;0.0198;0.0046;0.000527;0.734;490
2540;398;0.0198;0.0046;0.000532;0.732;378
2542;398;0.0198;0.0046;0.000527;0.731;350
2544;398;0.0198;0.0046;0.000525;0.732;350
2546;398;0.0198;0.0046;0.000532;0.73;350
2548;398;0.0198;0.0046;0.000527;0.728;350
2550;398;0.0198;0.0046;0.000529;0.725;350
2552;398;0.0198;0.0046;0.000534;0.721;350
2554;398;0.0198;0.0046;0.000532;0.72;350
2556;398;0.0198;0.0046;0.000535;0.718;350
2558;398;0.0198;0.0046;0.000538;0.719;350
2560;398;0.0198;0.0046;0.000533;0.719;350
2562;398;0.0198;0.0045;0.000541;0.717;350
2564;398;0.0198;0.0045;0.000542;0.718;434
2566;398;0.0198;0.0046;0.00053;0.715;490
2568;398;0.0198;0.0046;0.000538;0.713;490
2570;398;0.0198;0.0046;0.00054;0.71;490
2572;398;0.0198;0.0046;0.000533;0.706;490
2574;398;0.0198;0.0046;0.000534;0.707;406
2576;398;0.0198;0.0046;0.000529;0.703;350
2578;398;0.0198;0.0046;0.000516;0.704;350
2580;398;0.0198;0.0046;0.000526;0.704;350
2582;398;0.0198;0.0046;0.000522;0.702;350
2584;398;0.0198;0.0046;0.000511;0.703;350
2586;398;0.0198;0.0046;0.000512;0.699;350
2588;398;0.0198;0.0046;0.000516;0.698;350
2590;398;0.0198;0.0046;0.000516;0.697;350
2592;398;0.0198;0.0046;0.000516;0.694;350
2594;399;0.0198;0.0046;0.000509;0.695;350
2596;399;0.0198;0.0046;0.000512;0.692;350
2598;399;0.0198;0.0046;0.000517;0.691;350
2600;399;0.0198;0.0046;0.000516;0.689;343
2602;399;0.0198;0.0046;0.000515;0.688;315
2604;399;0.0198;0.0046;0.000504;0.687;308
2606;399;0.0198;0.0046;0.000506;0.685;378
2608;399;0.0198;0.0046;0.000507;0.684;385
2610;399;0.0198;0.0046;0.000504;0.682;378
2612;399;0.0198;0.0046;0.000498;0.68;364
2614;399;0.0198;0.0046;0.000495;0.68;364
2616;399;0.0198;0.0046;0.000498;0.677;266
2618;399;0.0198;0.0046;0.000498;0.676;224
2620;399;0.0198;0.0046;0.000497;0.674;238
2622;399;0.0198;0.0046;0.000491;0.672;280
2624;399;0.0198;0.0046;0.000494;0.672;294
2626;399;0.0198;0.0046;0.000504;0.669;315
2628;399;0.0198;0.0046;0.0005;0.668;350
2630;399;0.0198;0.0046;0.000494;0.666;350
2632;399;0.0198;0.0046;0.000498;0.664;350
2634;399;0.0198;0.0046;0.000499;0.664;350
2636;399;0.0198;0.0046;0.000501;0.662;350
2638;399;0.0198;0.0046;0.0005;0.661;350
2640;399;0.0198;0.0046;0.000493;0.661;350
2642;399;0.0198;0.0046;0.000493;0.659;490
2644;399;0.0198;0.0046;0.000496;0.661;490
2646;399;0.0198;0.0046;0.000498;0.658;490
2648;399;0.0198;0.0046;0.0005;0.657;490
2650;399;0.0198;0.0046;0.000499;0.655;476
2652;399;0.0198;0.0046;0.000493;0.652;350
2654;399;0.0198;0.0046;0.000493;0.651;350
2656;400;0.0198;0.0046;0.000497;0.648;350
2658;400;0.0198;0.0046;0.000499;0.65;350
2660;400;0.0198;0.0046;0.000497;0.647;350
2662;400;0.0198;0.0046;0.000493;0.644;350
2664;400;0.0198;0.0046;0.000487;0.643;350
2666;400;0.0198;0.0046;0.000492;0.641;350
2668;400;0.0198;0.0046;0.000493;0.641;350
2670;400;0.0198;0.0046;0.000493;0.641;350
2672;400;0.0198;0.0046;0.000493;0.639;350
2674;400;0.0198;0.0046;0.000487;0.64;350
2676;400;0.0198;0.0046;0.000488;0.637;350
2678;400;0.0198;0.0046;0.000488;0.637;350
2680;400;0.0198;0.0046;0.000492;0.637;350
2682;400;0.0198;0.0046;0.000491;0.635;350
2684;400;0.0198;0.0046;0.000483;0.634;350
2686;400;0.0198;0.0046;0.000488;0.627;364
2688;400;0.0198;0.0046;0.000488;0.625;490
2690;400;0.0198;0.0046;0.000485;0.626;490
2692;400;0.0198;0.0046;0.000485;0.624;490
2694;400;0.0198;0.0046;0.000476;0.623;490
2696;400;0.0198;0.0046;0.000479;0.619;476
2698;400;0.0198;0.0046;0.000466;0.617;350
2700;400;0.0198;0.0046;0.000476;0.615;350
2702;400;0.0198;0.0046;0.000467;0.612;350
2704;400;0.0198;0.0046;0.000476;0.613;350
2706;400;0.0198;0.0046;0.000471;0.611;350
2708;400;0.0198;0.0046;0.000472;0.61;350
2710;401;0.0198;0.0046;0.000471;0.608;350
2712;401;0.0198;0.0046;0.000471;0.605;350
2714;401;0.0198;0.0046;0.000471;0.605;350
2716;401;0.0198;0.0046;0.00047;0.601;350
2718;401;0.0198;0.0046;0.000473;0.6;350
2720;401;0.0198;0.0046;0.000474;0.6;350
2722;401;0.0198;0.0046;0.000477;0.597;336
2724;401;0.0198;0.0046;0.000476;0.598;315
2726;401;0.0198;0.0046;0.000475;0.596;343
2728;401;0.0198;0.0046;0.000476;0.594;406
2730;401;0.0198;0.0046;0.000472;0.592;378
2732;401;0.0198;0.0046;0.000475;0.59;364
2734;401;0.0198;0.0046;0.000467;0.588;364
2736;401;0.0198;0.0046;0.000471;0.586;322
2738;401;0.0198;0.0046;0.000463;0.585;217
2740;401;0.0198;0.0046;0.000467;0.584;231
2742;401;0.0198;0.0046;0.000459;0.583;231
2744;401;0.0198;0.0046;0.000461;0.584;245
2746;401;0.0198;0.0046;0.000454;0.58;273
2748;401;0.0198;0.0046;0.000454;0.58;308
2750;401;0.0198;0.0046;0.000449;0.579;322
2752;401;0.0198;0.0046;0.000447;0.578;350
2754;402;0.0198;0.0046;0.000445;0.578;350
2756;402;0.0198;0.0046;0.000442;0.573;350
2758;402;0.0198;0.0046;0.000447;0.57;350
2760;402;0.0198;0.0046;0.000443;0.571;350
2762;402;0.0198;0.0046;0.000443;0.57;350
2764;402;0.0198;0.0046;0.000439;0.57;350
2766;402;0.0198;0.0046;0.000446;0.568;350
2768;402;0.0198;0.0046;0.000437;0.566;350
2770;402;0.0198;0.0046;0.000443;0.566;350
2772;402;0.0198;0.0046;0.000437;0.564;350
2774;402;0.0198;0.0046;0.000443;0.564;448
2776;403;0.0198;0.0046;0.000437;0.561;490
2778;403;0.0198;0.0046;0.000438;0.561;490
2780;403;0.0198;0.0046;0.000434;0.56;490
2782;403;0.0198;0.0046;0.000434;0.556;490
2784;403;0.0198;0.0046;0.000432;0.558;392
2786;403;0.0198;0.0046;0.000426;0.556;350
2788;403;0.0198;0.0046;0.000432;0.556;350
2790;403;0.0198;0.0046;0.000427;0.556;350
2792;403;0.0198;0.0046;0.000433;0.555;350
2794;403;0.0198;0.0046;0.00043;0.554;350
2796;403;0.0198;0.0046;0.000427;0.551;350
2798;404;0.0198;0.0046;0.000432;0.548;350
2800;404;0.0198;0.0046;0.000419;0.547;350
2802;404;0.0198;0.0046;0.000429;0.547;350
2804;404;0.0198;0.0046;0.000417;0.549;350
2806;404;0.0198;0.0046;0.000429;0.548;350
2808;404;0.0198;0.0046;0.000421;0.546;350
2810;404;0.0198;0.0046;0.000428;0.543;350
2812;404;0.0198;0.0046;0.000422;0.541;350
2814;404;0.0198;0.0046;0.000426;0.545;350
2816;405;0.0198;0.0046;0.000419;0.542;350
2818;405;0.0198;0.0046;0.000422;0.542;350
2820;405;0.0198;0.0046;0.000417;0.54;350
2822;405;0.0198;0.0046;0.00042;0.537;406
2824;405;0.0198;0.0047;0.000416;0.537;490
2826;405;0.0198;0.0047;0.000415;0.534;490
2828;405;0.0198;0.0047;0.000414;0.533;490
2830;405;0.0198;0.0047;0.000408;0.533;490
2832;405;0.0198;0.0047;0.00041;0.533;434
2834;405;0.0198;0.0047;0.000401;0.534;350
2836;405;0.0198;0.0047;0.00041;0.532;350
2838;405;0.0198;0.0047;0.0004;0.53;350
2840;406;0.0198;0.0047;0.000411;0.53;350
2842;406;0.0198;0.0047;0.000406;0.527;350
2844;406;0.0198;0.0047;0.000409;0.527;350
2846;406;0.0198;0.0047;0.000403;0.524;308
2848;406;0.0198;0.0047;0.000405;0.522;301
2850;406;0.0198;0.0047;0.000405;0.52;273
2852;406;0.0198;0.0047;0.000399;0.518;231
2854;406;0.0198;0.0047;0.000401;0.519;224
2856;406;0.0198;0.0047;0.000396;0.516;238
2858;406;0.0198;0.0047;0.000402;0.515;210
2860;406;0.0198;0.0047;0.00039;0.515;231
2862;406;0.0198;0.0047;0.000403;0.513;238
2864;406;0.0198;0.0047;0.000391;0.514;210
2866;406;0.0198;0.0047;0.000392;0.513;231
2868;406;0.0198;0.0047;0.000392;0.512;273
2870;406;0.0198;0.0047;0.00039;0.511;273
2872;407;0.0198;0.0047;0.000395;0.507;308
2874;407;0.0198;0.0047;0.000386;0.506;343
2876;407;0.0198;0.0047;0.000389;0.502;350
2878;407;0.0198;0.0047;0.000382;0.501;476
2880;407;0.0198;0.0047;0.000384;0.506;490
2882;407;0.0198;0.0047;0.000382;0.503;490
2884;407;0.0198;0.0047;0.00038;0.503;490
2886;407;0.0198;0.0047;0.000378;0.501;490
2888;407;0.0198;0.0047;0.000379;0.497;350
2890;407;0.0198;0.0047;0.000374;0.494;350
2892;407;0.0198;0.0047;0.000381;0.494;350
2894;407;0.0198;0.0047;0.000365;0.494;350
2896;407;0.0198;0.0047;0.000365;0.49;350
2898;407;0.0198;0.0047;0.000365;0.487;350
2900;407;0.0198;0.0047;0.000365;0.487;350
2902;407;0.0198;0.0047;0.000365;0.484;350
2904;407;0.0198;0.0047;0.000365;0.484;350
2906;408;0.0198;0.0047;0.000365;0.483;350
2908;408;0.0198;0.0047;0.000365;0.482;350
2910;408;0.0198;0.0047;0.000365;0.482;350
2912;408;0.0198;0.0047;0.000365;0.48;350
2914;408;0.0198;0.0047;0.000365;0.479;350
2916;408;0.0198;0.0047;0.000365;0.478;350
2918;408;0.0198;0.0047;0.000365;0.476;350
2920;408;0.0198;0.0047;0.000365;0.476;350
2922;408;0.0198;0.0047;0.000365;0.473;350
2924;408;0.0198;0.0047;0.000365;0.474;350
2926;408;0.0198;0.0047;0.000365;0.47;350
2928;408;0.0198;0.0047;0.000365;0.469;350
2930;408;0.0198;0.0047;0.000365;0.468;350
2932;408;0.0198;0.0047;0.000365;0.466;350
2934;408;0.0198;0.0047;0.000365;0.466;350
2936;408;0.0198;0.0047;0.000365;0.463;392
2938;408;0.0198;0.0047;0.000365;0.462;490
2940;408;0.0198;0.0047;0.000365;0.461;490
2942;408;0.0198;0.0047;0.000365;0.458;490
2944;408;0.0198;0.0047;0.000365;0.458;490
2946;408;0.0198;0.0047;0.000365;0.456;448
2948;408;0.0198;0.0047;0.000365;0.454;350
2950;408;0.0198;0.0047;0.000365;0.454;350
2952;408;0.0198;0.0047;0.000365;0.452;350
2954;408;0.0198;0.0047;0.000365;0.451;343
2956;409;0.0198;0.0047;0.000365;0.449;343
2958;409;0.0198;0.0047;0.000365;0.448;308
2960;409;0.0198;0.0047;0.000365;0.448;273
2962;409;0.0198;0.0047;0.000365;0.446;273
2964;409;0.0198;0.0047;0.000365;0.445;238
2966;409;0.0198;0.0047;0.000365;0.445;210
2968;409;0.0198;0.0047;0.000365;0.442;238
2970;409;0.0198;0.0047;0.000365;0.442;231
2972;409;0.0198;0.0047;0.000365;0.44;210
2974;409;0.0198;0.0047;0.000365;0.439;238
2976;409;0.0198;0.0047;0.000365;0.437;273
2978;409;0.0198;0.0047;0.000365;0.436;273
2980;409;0.0198;0.0047;0.000365;0.436;315
2982;409;0.0198;0.0047;0.000365;0.433;343
2984;409;0.0198;0.0047;0.000365;0.433;350
2986;409;0.0198;0.0047;0.000365;0.432;350
2988;409;0.0198;0.0047;0.000365;0.431;350
2990;409;0.0198;0.0047;0.000365;0.431;350
2992;409;0.0198;0.0047;0.000365;0.427;350
2994;409;0.0198;0.0047;0.000365;0.428;350
2996;409;0.0198;0.0047;0.000365;0.425;350
2998;409;0.0198;0.0047;0.000365;0.422;350
3000;409;0.0198;0.0047;0.000365;0.422;350
3002;409;0.0198;0.0047;0.000365;0.418;350
3004;409;0.0198;0.0047;0.000365;0.42;392
3006;409;0.0198;0.0047;0.000365;0.418;490
3008;409;0.0198;0.0047;0.000365;0.417;490
3010;409;0.0198;0.0047;0.000365;0.417;490
3012;409;0.0198;0.0047;0.000365;0.415;490
3014;409;0.0198;0.0047;0.000365;0.416;448
3016;409;0.0198;0.0047;0.000365;0.413;350
3018;409;0.0198;0.0047;0.000365;0.412;350
3020;410;0.0198;0.0047;0.000365;0.412;350
3022;410;0.0198;0.0047;0.000365;0.408;350
3024;410;0.0198;0.0047;0.000365;0.409;350
3026;410;0.0198;0.0047;0.000365;0.406;350
3028;410;0.0198;0.0047;0.000365;0.404;350
3030;410;0.0198;0.0047;0.000365;0.402;350
3032;410;0.0198;0.0047;0.000365;0.4;350
3034;410;0.0198;0.0047;0.000365;0.401;350
3036;410;0.0198;0.0047;0.000365;0.402;350
3038;410;0.0198;0.0047;0.000365;0.4;350
3040;410;0.0198;0.0047;0.000365;0.401;350
3042;410;0.0198;0.0047;0.000365;0.399;350
3044;410;0.0198;0.0047;0.000365;0.397;350
3046;410;0.0198;0.0047;0.000365;0.395;350
3048;410;0.0198;0.0047;0.000365;0.392;350
3050;410;0.0198;0.0047;0.000365;0.391;350
3052;410;0.0198;0.0047;0.000365;0.388;350
3054;410;0.0198;0.0047;0.000365;0.388;350
3056;410;0.0198;0.0047;0.000365;0.388;350
3058;410;0.0198;0.0047;0.000365;0.388;350
3060;410;0.0198;0.0047;0.000365;0.389;350
3062;410;0.0198;0.0047;0.000365;0.386;315
3064;410;0.0198;0.0047;0.000365;0.385;308
3066;410;0.0198;0.0047;0.000365;0.381;273
3068;410;0.0198;0.0047;0.000365;0.378;245
3070;411;0.0198;0.0047;0.000365;0.378;238
3072;411;0.0198;0.0047;0.000365;0.378;231
3074;411;0.0198;0.0047;0.000365;0.378;217
3076;411;0.0198;0.0047;0.000365;0.376;238
3078;411;0.0198;0.0047;0.000365;0.372;224
3080;411;0.0198;0.0047;0.000365;0.374;217
3082;411;0.0198;0.0047;0.000365;0.373;252
3084;411;0.0198;0.0047;0.000365;0.37;399
3086;411;0.0198;0.0047;0.000365;0.369;413
3088;411;0.0198;0.0047;0.000365;0.368;455
3090;411;0.0198;0.0047;0.000365;0.369;476
3092;411;0.0198;0.0047;0.000365;0.366;462
3094;411;0.0198;0.0047;0.000365;0.366;350
3096;411;0.0198;0.0047;0.000365;0.364;350
3098;411;0.0198;0.0047;0.000365;0.362;350
3100;411;0.0198;0.0047;0.000365;0.363;350
3102;411;0.0198;0.0047;0.000365;0.361;350
3104;412;0.0198;0.0047;0.000365;0.362;350
3106;412;0.0198;0.0047;0.000365;0.361;350
3108;412;0.0198;0.0047;0.000365;0.359;350
3110;412;0.0198;0.0047;0.000365;0.358;350
3112;412;0.0198;0.0047;0.000365;0.355;350
3114;412;0.0198;0.0047;0.000365;0.355;350
3116;412;0.0198;0.0047;0.000365;0.355;350
3118;412;0.0198;0.0047;0.000365;0.353;350
3120;412;0.0198;0.0047;0.000365;0.355;350
3122;412;0.0198;0.0047;0.000365;0.354;350
3124;412;0.0198;0.0047;0.000365;0.355;350
3126;412;0.0198;0.0047;0.000365;0.354;350
3128;412;0.0198;0.0047;0.000365;0.349;350
3130;412;0.0198;0.0047;0.000365;0.349;350
3132;412;0.0198;0.0047;0.000365;0.346;350
3134;412;0.0198;0.0047;0.000365;0.345;350
3136;412;0.0198;0.0047;0.000365;0.346;350
3138;412;0.0198;0.0047;0.000365;0.346;350
3140;412;0.0198;0.0047;0.000365;0.346;350
3142;412;0.0198;0.0047;0.000365;0.343;350
3144;412;0.0198;0.0047;0.000365;0.341;350
3146;412;0.0198;0.0047;0.000365;0.341;350
3148;412;0.0198;0.0047;0.000365;0.341;350
3150;413;0.0198;0.0047;0.000365;0.343;350
3152;413;0.0198;0.0047;0.000365;0.341;350
3154;413;0.0198;0.0047;0.000365;0.34;350
3156;413;0.0198;0.0047;0.000365;0.337;350
3158;413;0.0198;0.0047;0.000365;0.336;350
3160;413;0.0198;0.0047;0.000365;0.338;350
3162;413;0.0198;0.0047;0.000365;0.337;350
3164;413;0.0198;0.0047;0.000365;0.336;350
3166;413;0.0198;0.0047;0.000365;0.334;350
3168;413;0.0198;0.0047;0.000365;0.331;350
3170;413;0.0198;0.0047;0.000365;0.332;350
3172;413;0.0198;0.0047;0.000365;0.331;350
3174;413;0.0198;0.0047;0.000365;0.332;350
3176;413;0.0198;0.0047;0.000365;0.333;350
3178;413;0.0198;0.0047;0.000365;0.332;350
3180;413;0.0198;0.0047;0.000365;0.332;350
3182;413;0.0198;0.0047;0.000365;0.328;322
3184;413;0.0198;0.0047;0.000365;0.326;308
3186;413;0.0198;0.0047;0.000365;0.325;413
3188;413;0.0198;0.0047;0.000365;0.324;392
3190;413;0.0198;0.0047;0.000365;0.325;371
3192;413;0.0198;0.0047;0.000365;0.324;364
3194;413;0.0198;0.0047;0.000365;0.324;350
3196;413;0.0198;0.0047;0.000365;0.324;231
3198;413;0.0198;0.0047;0.000365;0.321;217
3200;413;0.0198;0.0047;0.000365;0.32;231
3202;414;0.0198;0.0047;0.000365;0.316;231
3204;414;0.0198;0.0047;0.000365;0.316;252
3206;414;0.0198;0.0047;0.000365;0.317;273
3208;414;0.0198;0.0047;0.000365;0.316;308
3210;414;0.0198;0.0047;0.000365;0.316;322
3212;414;0.0198;0.0047;0.000365;0.313;350
3214;414;0.0198;0.0047;0.000365;0.31;350
3216;414;0.0198;0.0047;0.000365;0.312;350
3218;414;0.0198;0.0047;0.000365;0.311;350
3220;414;0.0198;0.0047;0.000365;0.313;350
3222;414;0.0198;0.0047;0.000365;0.309;350
3224;414;0.0198;0.0047;0.000365;0.307;350
3226;414;0.0198;0.0047;0.000365;0.308;350
3228;414;0.0198;0.0047;0.000365;0.305;350
3230;414;0.0198;0.0047;0.000365;0.306;350
3232;414;0.0198;0.0047;0.000365;0.304;350
3234;414;0.0198;0.0047;0.000365;0.304;350
3236;414;0.0198;0.0047;0.000365;0.305;350
3238;414;0.0198;0.0047;0.000365;0.304;350
3240;414;0.0198;0.0047;0.000365;0.303;350
3242;414;0.0198;0.0047;0.000365;0.301;350
3244;414;0.0198;0.0047;0.000365;0.298;350
3246;414;0.0198;0.0047;0.000365;0.297;350
3248;414;0.0198;0.0047;0.000365;0.298;350
3250;414;0.0198;0.0047;0.000365;0.301;350
3252;414;0.0198;0.0047;0.000365;0.297;350
3254;415;0.0198;0.0047;0.000365;0.295;350
3256;415;0.0198;0.0047;0.000365;0.293;350
3258;415;0.0198;0.0047;0.000365;0.291;350
3260;415;0.0198;0.0047;0.000365;0.293;350
3262;415;0.0198;0.0047;0.000365;0.292;350
3264;415;0.0198;0.0047;0.000365;0.292;350
3266;415;0.0198;0.0047;0.000365;0.29;350
3268;415;0.0198;0.0047;0.000365;0.285;350
3270;415;0.0198;0.0047;0.000365;0.287;350
3272;415;0.0198;0.0047;0.000365;0.286;350
3274;415;0.0198;0.0047;0.000365;0.285;350
3276;415;0.0198;0.0047;0.000365;0.287;350
3278;415;0.0198;0.0047;0.000365;0.284;350
3280;415;0.0198;0.0047;0.000365;0.284;350
3282;415;0.0198;0.0047;0.000365;0.281;350
3284;415;0.0198;0.0047;0.000365;0.281;350
3286;415;0.0198;0.0047;0.000365;0.28;350
3288;415;0.0198;0.0047;0.000365;0.277;350
3290;415;0.0198;0.0047;0.000365;0.277;350
3292;415;0.0198;0.0047;0.000365;0.275;350
3294;415;0.0198;0.0047;0.000365;0.273;350
3296;415;0.0198;0.0047;0.000365;0.275;350
3298;415;0.0198;0.0047;0.000365;0.275;350
3300;415;0.0198;0.0047;0.000365;0.276;350
3302;415;0.0198;0.0047;0.000365;0.273;329
3304;415;0.0198;0.0047;0.000365;0.272;308
3306;415;0.0198;0.0047;0.000365;0.271;273
3308;415;0.0198;0.0047;0.000365;0.268;259
3310;415;0.0198;0.0047;0.000365;0.268;238
3312;415;0.0198;0.0047;0.000365;0.265;224
3314;415;0.0198;0.0047;0.000365;0.264;231
3316;415;0.0198;0.0047;0.000365;0.263;231
3318;415;0.0198;0.0047;0.000365;0.262;210
3320;415;0.0198;0.0047;0.000365;0.263;231
3322;415;0.0198;0.0047;0.000365;0.262;231
3324;415;0.0198;0.0047;0.000365;0.262;238
3326;415;0.0198;0.0047;0.000365;0.261;266
3328;415;0.0198;0.0047;0.000365;0.26;301
3330;415;0.0198;0.0047;0.000365;0.26;301
3332;415;0.0198;0.0047;0.000365;0.259;343
3334;415;0.0198;0.0047;0.000365;0.258;350
3336;415;0.0198;0.0047;0.000365;0.257;350
3338;415;0.0198;0.0047;0.000365;0.254;350
3340;415;0.0198;0.0047;0.000365;0.253;350
3342;416;0.0198;0.0047;0.000365;0.251;350
3344;416;0.0198;0.0047;0.000365;0.249;350
3346;415;0.0198;0.0047;0.000365;0.25;350
3348;416;0.0198;0.0047;0.000365;0.247;350
3350;416;0.0198;0.0047;0.000365;0.249;350
3352;416;0.0198;0.0047;0.000365;0.25;350
3354;416;0.0198;0.0047;0.000365;0.249;350
3356;416;0.0198;0.0047;0.000365;0.248;350
3358;416;0.0198;0.0047;0.000365;0.244;350
3360;416;0.0198;0.0047;0.000365;0.243;350
3362;416;0.0198;0.0047;0.000365;0.24;350
3364;416;0.0198;0.0047;0.000365;0.241;350
3366;416;0.0198;0.0047;0.000365;0.242;350
3368;416;0.0198;0.0047;0.000365;0.242;350
3370;416;0.0198;0.0047;0.000365;0.241;350
3372;416;0.0198;0.0047;0.000365;0.239;350
3374;416;0.0198;0.0047;0.000365;0.236;350
3376;416;0.0198;0.0047;0.000365;0.239;406
3378;416;0.0198;0.0047;0.000365;0.237;490
3380;416;0.0198;0.0047;0.000365;0.237;490
3382;416;0.0198;0.0047;0.000365;0.235;490
3384;416;0.0198;0.0047;0.000365;0.232;490
3386;417;0.0198;0.0047;0.000365;0.231;434
3388;417;0.0198;0.0047;0.000365;0.229;350
3390;417;0.0198;0.0047;0.000365;0.231;350
3392;417;0.0198;0.0047;0.000365;0.231;350
3394;417;0.0198;0.0047;0.000365;0.229;350
3396;417;0.0198;0.0047;0.000365;0.229;350
3398;417;0.0198;0.0047;0.000365;0.226;350
3400;417;0.0198;0.0047;0.000365;0.226;350
3402;417;0.0198;0.0047;0.000365;0.225;350
3404;417;0.0198;0.0047;0.000365;0.225;350
3406;417;0.0198;0.0047;0.000365;0.225;350
3408;417;0.0198;0.0047;0.000365;0.222;350
3410;417;0.0198;0.0047;0.000365;0.22;350
3412;417;0.0198;0.0047;0.000365;0.219;350
3414;417;0.0198;0.0047;0.000365;0.219;350
3416;417;0.0198;0.0047;0.000365;0.22;350
3418;417;0.0198;0.0047;0.000365;0.218;350
3420;417;0.0198;0.0047;0.000365;0.217;343
3422;417;0.0198;0.0047;0.000365;0.215;336
3424;418;0.0198;0.0047;0.000365;0.215;308
3426;418;0.0198;0.0047;0.000365;0.217;266
3428;418;0.0198;0.0047;0.000365;0.216;266
3430;418;0.0198;0.0047;0.000365;0.214;238
3432;418;0.0198;0.0047;0.000365;0.212;210
3434;418;0.0198;0.0047;0.000365;0.21;231
3436;418;0.0198;0.0047;0.000365;0.211;231
3438;418;0.0198;0.0047;0.000365;0.209;210
3440;418;0.0198;0.0047;0.000365;0.21;231
3442;418;0.0198;0.0047;0.000365;0.21;231
3444;418;0.0198;0.0047;0.000365;0.208;231
3446;418;0.0198;0.0047;0.000365;0.207;273
3448;418;0.0198;0.0047;0.000365;0.204;301
3450;418;0.0198;0.0047;0.000365;0.206;308
3452;418;0.0198;0.0047;0.000365;0.206;350
3454;418;0.0198;0.0047;0.000365;0.204;350
3456;418;0.0198;0.0047;0.000365;0.204;350
3458;418;0.0198;0.0047;0.000365;0.202;350
3460;418;0.0198;0.0047;0.000365;0.2;350
3462;418;0.0198;0.0047;0.000365;0.2;350
3464;419;0.0198;0.0047;0.000365;0.198;350
3466;419;0.0198;0.0047;0.000365;0.198;350
3468;419;0.0198;0.0047;0.000365;0.197;350
3470;419;0.0198;0.0047;0.000365;0.197;350
3472;419;0.0198;0.0047;0.000365;0.198;350
3474;419;0.0198;0.0047;0.000365;0.198;350
3476;419;0.0198;0.0047;0.000365;0.197;350
3478;419;0.0198;0.0047;0.000365;0.194;350
3480;419;0.0198;0.0047;0.000365;0.191;350
3482;419;0.0198;0.0047;0.000365;0.191;350
3484;419;0.0198;0.0047;0.000365;0.188;350
3486;419;0.0198;0.0047;0.000365;0.19;350
3488;419;0.0198;0.0047;0.000365;0.19;350
3490;419;0.0198;0.0047;0.000365;0.189;350
3492;419;0.0198;0.0047;0.000365;0.19;350
3494;419;0.0198;0.0047;0.000365;0.187;350
3496;419;0.0198;0.0047;0.000365;0.187;350
3498;419;0.0198;0.0047;0.000365;0.186;350
3500;419;0.0198;0.0047;0.000365;0.185;350
3502;420;0.0198;0.0047;0.000365;0.185;350
3504;419;0.0198;0.0047;0.000365;0.183;350
3506;420;0.0198;0.0047;0.000365;0.183;350
3508;420;0.0198;0.0047;0.000365;0.181;350
3510;420;0.0198;0.0047;0.000365;0.18;350
3512;420;0.0198;0.0047;0.000365;0.18;350
3514;420;0.0198;0.0047;0.000365;0.178;350
3516;420;0.0198;0.0047;0.000365;0.179;350
3518;420;0.0198;0.0047;0.000365;0.178;350
3520;420;0.0198;0.0047;0.000365;0.177;350
3522;420;0.0198;0.0047;0.000365;0.178;350
3524;420;0.0198;0.0047;0.000365;0.176;350
3526;420;0.0198;0.0047;0.000365;0.177;350
3528;420;0.0198;0.0047;0.000365;0.175;350
3530;420;0.0198;0.0047;0.000365;0.173;350
3532;420;0.0198;0.0047;0.000365;0.172;350
3534;420;0.0198;0.0047;0.000365;0.17;350
3536;420;0.0198;0.0047;0.000365;0.169;350
3538;420;0.0198;0.0047;0.000365;0.168;350
3540;420;0.0198;0.0047;0.000365;0.167;350
3542;420;0.0198;0.0047;0.000365;0.168;350
3544;421;0.0198;0.0047;0.000365;0.167;350
3546;421;0.0198;0.0047;0.000365;0.169;350
3548;421;0.0198;0.0047;0.000365;0.168;350
3550;421;0.0198;0.0047;0.000365;0.168;350
3552;421;0.0198;0.0047;0.000365;0.166;315
3554;421;0.0198;0.0047;0.000365;0.161;308
3556;421;0.0198;0.0047;0.000365;0.161;273
3558;421;0.0198;0.0047;0.000365;0.161;238
3560;421;0.0198;0.0047;0.000365;0.161;231
3562;421;0.0198;0.0047;0.000365;0.161;231
3564;421;0.0198;0.0047;0.000365;0.158;217
3566;421;0.0198;0.0047;0.000365;0.157;231
3568;421;0.0198;0.0047;0.000365;0.157;224
3570;421;0.0198;0.0047;0.000365;0.157;238
3572;421;0.0198;0.0047;0.000365;0.157;273
3574;421;0.0198;0.0047;0.000365;0.154;301
3576;421;0.0198;0.0047;0.000365;0.153;315
3578;421;0.0198;0.0047;0.000365;0.155;350
3580;421;0.0198;0.0047;0.000365;0.153;350
3582;421;0.0198;0.0047;0.000365;0.155;350
3584;421;0.0198;0.0047;0.000365;0.151;350
3586;421;0.0198;0.0047;0.000365;0.15;350
3588;421;0.0198;0.0047;0.000365;0.148;350
3590;422;0.0198;0.0047;0.000365;0.147;350
3592;422;0.0198;0.0047;0.000365;0.149;350
3594;422;0.0198;0.0047;0.000365;0.149;350
3596;422;0.0198;0.0047;0.000365;0.148;350
3598;422;0.0198;0.0047;0.000365;0.147;350
3600;422;0.0198;0.0047;0.000365;0.145;350
3602;422;0.0198;0.0047;0.000365;0.145;350
3604;422;0.0198;0.0047;0.000365;0.142;350
3606;422;0.0198;0.0047;0.000365;0.142;350
3608;422;0.0198;0.0047;0.000365;0.142;350
3610;422;0.0198;0.0047;0.000365;0.141;350
3612;423;0.0198;0.0047;0.000365;0.142;350
3614;423;0.0198;0.0047;0.000365;0.141;350
3616;423;0.0198;0.0047;0.000365;0.142;350
3618;423;0.0198;0.0047;0.000365;0.14;350
3620;423;0.0198;0.0047;0.000365;0.136;350
3622;423;0.0198;0.0047;0.000365;0.134;350
3624;423;0.0198;0.0047;0.000365;0.135;350
3626;423;0.0198;0.0047;0.000365;0.136;350
3628;423;0.0198;0.0047;0.000365;0.135;350
3630;423;0.0198;0.0047;0.000365;0.131;350
3632;423;0.0198;0.0047;0.000365;0.131;350
3634;423;0.0198;0.0047;0.000365;0.129;350
3636;423;0.0198;0.0047;0.000365;0.129;350
3638;423;0.0198;0.0047;0.000365;0.13;350
3640;423;0.0198;0.0047;0.000365;0.128;350
3642;423;0.0198;0.0047;0.000365;0.128;350
3644;423;0.0198;0.0047;0.000365;0.127;350
3646;423;0.0198;0.0047;0.000365;0.126;350
3648;423;0.0198;0.0047;0.000365;0.125;350
3650;423;0.0198;0.0047;0.000365;0.123;350
3652;423;0.0198;0.0047;0.000365;0.124;350
3654;423;0.0198;0.0047;0.000365;0.122;350
3656;423;0.0198;0.0047;0.000365;0.121;350
3658;423;0.0198;0.0047;0.000365;0.122;350
3660;423;0.0198;0.0047;0.000365;0.12;350
3662;423;0.0198;0.0047;0.000365;0.121;350
3664;423;0.0198;0.0047;0.000365;0.12;343
3666;423;0.0198;0.0047;0.000365;0.118;343
3668;423;0.0198;0.0047;0.000365;0.118;322
3670;423;0.0198;0.0047;0.000365;0.116;287
3672;423;0.0198;0.0047;0.000365;0.116;266
3674;423;0.0198;0.0047;0.000365;0.113;252
3676;423;0.0198;0.0047;0.000365;0.111;224
3678;423;0.0198;0.0047;0.000365;0.112;224
3680;422;0.0198;0.0047;0.000365;0.11;231
3682;422;0.0198;0.0047;0.000365;0.111;224
3684;422;0.0198;0.0047;0.000365;0.109;224
3686;422;0.0198;0.0047;0.000365;0.109;245
3688;422;0.0198;0.0047;0.000365;0.111;259
3690;422;0.0198;0.0047;0.000365;0.11;287
3692;422;0.0198;0.0047;0.000365;0.11;322
3694;422;0.0198;0.0047;0.000365;0.105;336
3696;422;0.0198;0.0047;0.000365;0.104;350
3698;422;0.0198;0.0047;0.000365;0.104;350
3700;422;0.0198;0.0047;0.000365;0.104;350
3702;422;0.0198;0.0047;0.000365;0.106;350
3704;421;0.0198;0.0047;0.000365;0.105;350
3706;421;0.0198;0.0047;0.000365;0.103;350
3708;421;0.0198;0.0047;0.000365;0.103;350
3710;420;0.0198;0.0047;0.000365;0.0995;350
3712;420;0.0198;0.0047;0.000365;0.0996;350
3714;419;0.0198;0.0047;0.000365;0.0997;350
3716;419;0.0198;0.0047;0.000365;0.0986;350
3718;418;0.0198;0.0047;0.000365;0.1;350
3720;418;0.0198;0.0047;0.000365;0.0992;350
3722;417;0.0198;0.0047;0.000365;0.0994;350
3724;417;0.0198;0.0047;0.000365;0.0988;350
3726;417;0.0198;0.0047;0.000365;0.0948;350
3728;416;0.0198;0.0047;0.000365;0.0942;350
3730;416;0.0198;0.0047;0.000365;0.0919;350
3732;416;0.0198;0.0047;0.000365;0.0941;350
3734;416;0.0198;0.0047;0.000365;0.0944;350
3736;415;0.0198;0.0047;0.000365;0.0934;350
3738;415;0.0198;0.0047;0.000365;0.0947;350
3740;415;0.0198;0.0047;0.000365;0.0928;350
3742;415;0.0198;0.0047;0.000365;0.0927;350
3744;415;0.0198;0.0047;0.000365;0.0914;350
3746;415;0.0198;0.0047;0.000365;0.0889;350
3748;415;0.0198;0.0047;0.000365;0.0896;350
3750;415;0.0198;0.0047;0.000365;0.0874;350
3752;415;0.0198;0.0047;0.000365;0.0865;350
3754;415;0.0198;0.0047;0.000365;0.0863;350
3756;415;0.0198;0.0047;0.000365;0.0855;350
3758;415;0.0198;0.0047;0.000365;0.0874;350
3760;415;0.0198;0.0047;0.000365;0.0862;350
3762;415;0.0198;0.0047;0.000365;0.0867;350
3764;415;0.0198;0.0047;0.000365;0.0856;350
3766;416;0.0198;0.0047;0.000365;0.0847;350
3768;416;0.0198;0.0047;0.000365;0.0844;350
3770;416;0.0198;0.0047;0.000365;0.0815;350
3772;416;0.0198;0.0047;0.000365;0.0809;350
3774;416;0.0198;0.0047;0.000365;0.0799;350
3776;416;0.0198;0.0047;0.000365;0.078;350
3778;417;0.0198;0.0047;0.000365;0.0797;350
3780;417;0.0198;0.0047;0.000365;0.0773;350
3782;417;0.0198;0.0047;0.000365;0.0816;350
3784;417;0.0198;0.0047;0.000365;0.0812;350
3786;417;0.0198;0.0047;0.000365;0.0794;350
3788;418;0.0198;0.0047;0.000365;0.0785;350
3790;418;0.0198;0.0047;0.000365;0.0746;350
3792;418;0.0198;0.0047;0.000365;0.0733;350
3794;418;0.0198;0.0047;0.000365;0.0731;350
3796;418;0.0198;0.0047;0.000365;0.0717;322
3798;418;0.0198;0.0047;0.000365;0.074;301
3800;419;0.0198;0.0047;0.000365;0.0751;280
3802;419;0.0198;0.0047;0.000365;0.0757;245
3804;419;0.0198;0.0047;0.000365;0.0735;224
3806;419;0.0198;0.0047;0.000365;0.0698;231
3808;419;0.0198;0.0047;0.000365;0.0692;224
3810;419;0.0198;0.0047;0.000365;0.0692;224
3812;420;0.0198;0.0047;0.000365;0.0705;231
3814;420;0.0198;0.0047;0.000365;0.0689;217
3816;420;0.0198;0.0047;0.000365;0.0663;231
3818;420;0.0198;0.0047;0.000365;0.067;245
3820;420;0.0198;0.0047;0.000365;0.0657;259
3822;420;0.0198;0.0047;0.000365;0.0666;287
3824;420;0.0198;0.0047;0.000365;0.0671;322
3826;421;0.0198;0.0047;0.000365;0.0665;329
3828;421;0.0198;0.0047;0.000365;0.0684;350
3830;421;0.0198;0.0047;0.000365;0.0669;350
3832;421;0.0198;0.0047;0.000365;0.0657;350
3834;421;0.0198;0.0047;0.000365;0.0654;350
3836;421;0.0198;0.0047;0.000365;0.0628;350
3838;421;0.0198;0.0047;0.000365;0.0632;350
3840;421;0.0198;0.0047;0.000365;0.0603;350
3842;421;0.0198;0.0047;0.000365;0.0591;350
3844;422;0.0198;0.0047;0.000365;0.059;350
3846;422;0.0198;0.0047;0.000365;0.058;350
3848;422;0.0198;0.0047;0.000365;0.0601;350
3850;422;0.0198;0.0047;0.000365;0.0599;350
3852;422;0.0198;0.0047;0.000365;0.0606;350
3854;422;0.0198;0.0047;0.000365;0.0605;350
3856;422;0.0198;0.0047;0.000365;0.059;350
3858;423;0.0198;0.0047;0.000365;0.0596;350
3860;423;0.0198;0.0047;0.000365;0.056;350
3862;423;0.0198;0.0047;0.000365;0.0539;350
3864;423;0.0198;0.0047;0.000365;0.0539;350
3866;423;0.0198;0.0047;0.000365;0.0523;350
3868;423;0.0198;0.0047;0.000365;0.0537;350
3870;423;0.0198;0.0047;0.000365;0.0536;350
3872;423;0.0198;0.0047;0.000365;0.0531;350
3874;423;0.0198;0.0047;0.000365;0.0548;350
3876;423;0.0198;0.0047;0.000365;0.0542;350
3878;423;0.0198;0.0047;0.000365;0.0546;350
3880;423;0.0198;0.0047;0.000365;0.0518;350
3882;423;0.0198;0.0047;0.000365;0.0499;350
3884;423;0.0198;0.0047;0.000365;0.0485;350
3886;422;0.0198;0.0047;0.000365;0.0474;350
3888;422;0.0198;0.0047;0.000365;0.0495;350
3890;422;0.0198;0.0047;0.000365;0.0501;350
3892;422;0.0198;0.0047;0.000365;0.0512;350
3894;422;0.0198;0.0047;0.000365;0.0503;350
3896;422;0.0198;0.0047;0.000365;0.0447;350
3898;421;0.0198;0.0047;0.000365;0.0471;350
3900;421;0.0198;0.0047;0.000365;0.0479;350
3902;421;0.0198;0.0047;0.000365;0.0457;350
3904;421;0.0198;0.0047;0.000365;0.0461;350
3906;421;0.0198;0.0047;0.000365;0.0438;350
3908;421;0.0198;0.0047;0.000365;0.0433;350
3910;421;0.0198;0.0047;0.000365;0.0443;350
3912;421;0.0198;0.0047;0.000365;0.0437;350
3914;421;0.0198;0.0047;0.000365;0.0443;350
3916;421;0.0198;0.0047;0.000365;0.0405;350
3918;421;0.0198;0.0047;0.000365;0.04;350
3920;421;0.0198;0.0047;0.000365;0.0379;350
3922;421;0.0198;0.0047;0.000365;0.0384;350
3924;421;0.0198;0.0047;0.000365;0.0412;350
3926;421;0.0198;0.0047;0.000365;0.0393;350
3928;420;0.0198;0.0047;0.000365;0.0392;350
3930;420;0.0198;0.0047;0.000365;0.0383;350
3932;420;0.0198;0.0047;0.000365;0.0361;350
3934;420;0.0198;0.0047;0.000365;0.0364;350
3936;420;0.0198;0.0047;0.000365;0.0357;350
3938;421;0.0198;0.0047;0.000365;0.0381;350
3940;421;0.0198;0.0047;0.000365;0.0388;350
3942;421;0.0198;0.0047;0.000365;0.0376;350
3944;421;0.0198;0.0047;0.000365;0.037;350
3946;421;0.0198;0.0047;0.000365;0.0339;350
3948;421;0.0198;0.0047;0.000365;0.0325;350
3950;421;0.0198;0.0047;0.000365;0.0326;350
3952;421;0.0198;0.0047;0.000365;0.032;315
3954;421;0.0198;0.0047;0.000365;0.0343;301
3956;422;0.0198;0.0047;0.000365;0.0332;280
3958;422;0.0198;0.0047;0.000365;0.0347;238
3960;422;0.0198;0.0047;0.000365;0.036;231
3962;422;0.0198;0.0047;0.000365;0.0345;231
3964;422;0.0198;0.0047;0.000365;0.0342;217
3966;423;0.0198;0.0047;0.000365;0.0305;224
3968;423;0.0198;0.0047;0.000365;0.0307;231
3970;423;0.0198;0.0047;0.000365;0.0301;245
3972;423;0.0198;0.0047;0.000365;0.0304;273
3974;423;0.0198;0.0047;0.000365;0.0325;308
3976;423;0.0198;0.0047;0.000365;0.0324;315
3978;424;0.0198;0.0047;0.000365;0.0334;350
3980;424;0.0198;0.0047;0.000365;0.0321;350
3982;424;0.0198;0.0047;0.000365;0.029;350
3984;424;0.0198;0.0047;0.000365;0.0285;350
3986;425;0.0198;0.0047;0.000365;0.0258;350
3988;425;0.0198;0.0047;0.000365;0.0265;350
3990;425;0.0198;0.0047;0.000365;0.0285;350
3992;425;0.0198;0.0047;0.000365;0.027;350
3994;426;0.0198;0.0047;0.000365;0.0281;350
3996;426;0.0198;0.0047;0.000365;0.0265;350
3998;426;0.0198;0.0047;0.000365;0.0249;350
4000;426;0.0198;0.0047;0.000365;0.0225;350
4002;426;0.0198;0.0047;0.000365;0.0202;350
4004;426;0.0198;0.0047;0.000365;0.0218;350
4006;426;0.0198;0.0047;0.000365;0.0202;350
4008;427;0.0198;0.0047;0.000365;0.0193;350
4010;427;0.0198;0.0047;0.000365;0.0203;350
4012;427;0.0198;0.0047;0.000365;0.0181;350
4014;427;0.0198;0.0047;0.000365;0.0193;350
4016;427;0.0198;0.0047;0.000365;0.0168;350
4018;428;0.0198;0.0047;0.000365;0.0153;350
4020;428;0.0198;0.0047;0.000365;0.0139;350
4022;428;0.0198;0.0047;0.000365;0.0113;350
4024;428;0.0198;0.0047;0.000365;0.0111;350
4026;428;0.0198;0.0047;0.000365;0.00927;350
4028;428;0.0198;0.0047;0.000365;0.00903;350
4030;428;0.0198;0.0047;0.000365;0.01;350
4032;428;0.0198;0.0047;0.000365;0.00815;350
4034;429;0.0198;0.0047;0.000365;0.00953;350
4036;429;0.0198;0.0047;0.000365;0.00736;350
4038;429;0.0198;0.0047;0.000365;0.00437;350
4040;429;0.0198;0.0047;0.000365;0.00331;350
4042;429;0.0198;0.0047;0.000365;0.000835;350
4044;429;0.0198;0.0047;0.000365;0.00259;350
4046;429;0.0198;0.0047;0.000365;0.00143;350
4048;429;0.0198;0.0047;0.000365;0.00176;350
4050;430;0.0198;0.0047;0.000365;0.00156;350
4052;430;0.0198;0.0047;0.000365;0;350
4054;430;0.0198;0.0047;0.000365;0;350
4056;430;0.0198;0.0047;0.000365;0;350
4058;430;0.0198;0.0047;0.000365;0;350
4060;430;0.0198;0.0047;0.000365;0;350
4062;430;0.0198;0.0047;0.000365;0;350
4064;431;0.0198;0.0047;0.000365;0;350
4066;431;0.0198;0.0047;0.000365;0;350
4068;431;0.0198;0.0047;0.000365;0;350
4070;431;0.0198;0.0047;0.000365;0;350
4072;431;0.0198;0.0047;0.000365;0;350
4074;431;0.0198;0.0047;0.000365;0;350
4076;431;0.0198;0.0047;0.000365;0;350
4078;432;0.0198;0.0047;0.000365;0;350
4080;432;0.0198;0.0047;0.000365;0;350
4082;432;0.0198;0.0047;0.000365;0;350
4084;432;0.0198;0.0047;0.000365;0;350
4086;432;0.0198;0.0047;0.000365;0;350
4088;432;0.0198;0.0047;0.000365;0;350
4090;432;0.0198;0.0047;0.000365;0;350
4092;432;0.0198;0.0047;0.000365;0;350
4094;432;0.0198;0.0047;0.000365;0;350
4096;433;0.0198;0.0047;0.000365;0;350
4098;433;0.0198;0.0047;0.000365;0;343
4100;433;0.0198;0.0047;0.000365;0;322
4102;433;0.0198;0.0047;0.000365;0;280
4104;433;0.0198;0.0047;0.000365;0;273
4106;433;0.0198;0.0047;0.000365;0;245
4108;433;0.0198;0.0047;0.000365;0;210
4110;433;0.0198;0.0047;0.000365;0;231
4112;433;0.0198;0.0047;0.000365;0;238
4114;433;0.0198;0.0047;0.000365;0;210
4116;434;0.0198;0.0047;0.000365;0;231
4118;434;0.0198;0.0047;0.000365;0;273
4120;434;0.0198;0.0047;0.000365;0;280
4122;434;0.0198;0.0047;0.000365;0;308
4124;434;0.0198;0.0047;0.000365;0;350
4126;434;0.0198;0.0047;0.000365;0;350
4128;434;0.0198;0.0047;0.000365;0;350
4130;434;0.0198;0.0047;0.000365;0;350
4132;434;0.0198;0.0047;0.000365;0;350
4134;435;0.0198;0.0047;0.000365;0;350
4136;435;0.0198;0.0047;0.000365;0;350
4138;435;0.0198;0.0047;0.000365;0;350
4140;435;0.0198;0.0047;0.000365;0;350
4142;435;0.0198;0.0047;0.000365;0;350
4144;435;0.0198;0.0047;0.000365;0;350
4146;435;0.0198;0.0047;0.000365;0;350
4148;435;0.0198;0.0047;0.000365;0;350
4150;436;0.0198;0.0047;0.000365;0;350
4152;436;0.0198;0.0047;0.000365;0;350
4154;436;0.0198;0.0047;0.000365;0;350
4156;436;0.0198;0.0047;0.000365;0;350
4158;436;0.0198;0.0047;0.000365;0;350
4160;436;0.0198;0.0047;0.000365;0;350
4162;436;0.0198;0.0047;0.000365;0;350
4164;436;0.0198;0.0047;0.000365;0;350
4166;436;0.0198;0.0047;0.000365;0;350
4168;436;0.0198;0.0047;0.000365;0;350
4170;437;0.0198;0.0047;0.000365;0;350
4172;437;0.0198;0.0047;0.000365;0;350
4174;437;0.0198;0.0047;0.000365;0;350
4176;437;0.0198;0.0047;0.000365;0;350
4178;437;0.0198;0.0047;0.000365;0;350
4180;437;0.0198;0.0047;0.000365;0;350
4182;437;0.0198;0.0047;0.000365;0;350
4184;437;0.0198;0.0047;0.000365;0;350
4186;438;0.0198;0.0047;0.000365;0;350
4188;438;0.0198;0.0047;0.000365;0;350
4190;438;0.0198;0.0047;0.000365;0;350
4192;438;0.0198;0.0047;0.000365;0;350
4194;438;0.0198;0.0047;0.000365;0;350
4196;438;0.0198;0.0047;0.000365;0;350
4198;438;0.0198;0.0047;0.000365;0;350
4200;438;0.0198;0.0047;0.000365;0.00169;350
4202;438;0.0198;0.0047;0.000365;0.000881;350
4204;439;0.0198;0.0047;0.000365;0.000882;350
4206;439;0.0198;0.0047;0.000365;0.000535;350
4208;439;0.0198;0.0047;0.000365;0;350
4210;439;0.0198;0.0047;0.000365;0;350
4212;439;0.0198;0.0047;0.000365;0;350
4214;439;0.0198;0.0047;0.000365;0.00185;350
4216;439;0.0198;0.0047;0.000365;0.00205;350
4218;439;0.0198;0.0047;0.000365;0.00111;350
4220;439;0.0198;0.0047;0.000365;0.00224;350
4222;440;0.0198;0.0047;0.000365;0;350
4224;440;0.0198;0.0047;0.000365;0;350
4226;440;0.0198;0.0047;0.000365;0;350
4228;440;0.0198;0.0047;0.000365;0;350
4230;440;0.0198;0.0047;0.000365;0;350
4232;440;0.0198;0.0047;0.000365;0;350
4234;440;0.0198;0.0047;0.000365;0;350
4236;440;0.0198;0.0047;0.000365;0;350
4238;440;0.0198;0.0047;0.000365;0;350
4240;440;0.0198;0.0047;0.000365;0;315
4242;440;0.0198;0.0047;0.000365;0;308
4244;440;0.0198;0.0047;0.000365;0;273
4246;441;0.0198;0.0047;0.000365;0;238
4248;441;0.0198;0.0047;0.000365;0;231
4250;441;0.0198;0.0047;0.000365;0;238
4252;441;0.0198;0.0047;0.000365;0;210
4254;441;0.0198;0.0047;0.000365;0;238
4256;441;0.0198;0.0047;0.000365;0;238
4258;441;0.0198;0.0047;0.000365;0;238
4260;441;0.0198;0.0047;0.000365;0;273
4262;441;0.0198;0.0047;0.000365;0;315
4264;441;0.0198;0.0047;0.000365;0;315
4266;442;0.0198;0.0047;0.000365;0;350
4268;442;0.0198;0.0047;0.000365;0;350
4270;442;0.0198;0.0047;0.000365;0;350
4272;442;0.0198;0.0047;0.000365;0;350
4274;442;0.0198;0.0047;0.000365;0;350
4276;442;0.0198;0.0047;0.000365;0;350
4278;442;0.0198;0.0047;0.000365;0;350
4280;442;0.0198;0.0047;0.000365;0;350
4282;442;0.0198;0.0047;0.000365;0;350
4284;442;0.0198;0.0047;0.000365;0;350
4286;443;0.0198;0.0047;0.000365;0;350
4288;443;0.0198;0.0047;0.000365;0;350
4290;443;0.0198;0.0047;0.000365;0;350
4292;443;0.0198;0.0047;0.000365;0;350
4294;443;0.0198;0.0047;0.000365;0;350
4296;443;0.0198;0.0047;0.000365;0;350
4298;443;0.0198;0.0047;0.000365;0;350
4300;443;0.0198;0.0047;0.000365;0;350
4302;443;0.0198;0.0047;0.000365;0;350
4304;443;0.0198;0.0047;0.000365;0;350
4306;444;0.0198;0.0047;0.000365;0;350
4308;444;0.0198;0.0047;0.000365;0;350
4310;444;0.0198;0.0047;0.000365;0;350
4312;444;0.0198;0.0047;0.000365;0;350
4314;444;0.0198;0.0047;0.000365;0;350
4316;444;0.0198;0.0047;0.000365;0;350
4318;444;0.0198;0.0047;0.000365;0;350
4320;444;0.0198;0.0047;0.000365;0;350
4322;444;0.0198;0.0047;0.000365;0;350
4324;444;0.0198;0.0047;0.000365;0;350
4326;444;0.0198;0.0047;0.000365;0.000136;350
4328;445;0.0198;0.0047;0.000365;0.00018;350
4330;445;0.0198;0.0047;0.000365;0.00304;350
4332;445;0.0198;0.0047;0.000365;0.00336;350
4334;445;0.0198;0.0047;0.000365;0.00407;350
4336;445;0.0198;0.0047;0.000365;0.00698;350
4338;445;0.0198;0.0047;0.000365;0.00625;350
4340;445;0.0198;0.0047;0.000365;0.00822;350
4342;445;0.0198;0.0047;0.000365;0.00715;350
4344;445;0.0198;0.0047;0.000365;0.00602;350
4346;445;0.0198;0.0047;0.000365;0.00648;350
4348;445;0.0198;0.0047;0.000365;0.0049;350
4350;445;0.0198;0.0047;0.000365;0.00506;350
4352;445;0.0198;0.0047;0.000365;0.0054;350
4354;445;0.0198;0.0047;0.000365;0.00512;350
4356;445;0.0198;0.0047;0.000365;0.00643;350
4358;445;0.0198;0.0047;0.000365;0.00651;350
4360;445;0.0198;0.0047;0.000365;0.00827;350
4362;445;0.0198;0.0047;0.000365;0.00798;350
4364;445;0.0198;0.0047;0.000365;0.0117;350
4366;445;0.0198;0.0047;0.000365;0.0131;350
4368;445;0.0198;0.0047;0.000365;0.0109;350
4370;445;0.0198;0.0047;0.000365;0.00943;350
4372;446;0.0198;0.0047;0.000365;0.00992;350
4374;446;0.0198;0.0047;0.000365;0.0104;350
4376;446;0.0198;0.0047;0.000365;0.00995;350
4378;446;0.0198;0.0047;0.000365;0.00687;350
4380;446;0.0198;0.0047;0.000365;0.00802;350
4382;446;0.0198;0.0047;0.000365;0.00993;350
4384;446;0.0198;0.0047;0.000365;0.00998;350
4386;446;0.0198;0.0047;0.000365;0.0118;350
4388;446;0.0198;0.0047;0.000365;0.00984;350
4390;446;0.0198;0.0047;0.000365;0.00975;350
4392;446;0.0198;0.0047;0.000365;0.00794;350
4394;446;0.0198;0.0047;0.000365;0.00783;350
4396;446;0.0198;0.0047;0.000365;0.01;350
4398;446;0.0198;0.0047;0.000365;0.0101;350
4400;446;0.0198;0.0047;0.000365;0.0119;350
4402;446;0.0198;0.0047;0.000365;0.0125;350
4404;446;0.0198;0.0043;0.00079;0.012;350
4406;446;0.0198;0.0043;0.000792;0.0132;350
4408;446;0.0198;0.0043;0.000778;0.0107;350
4410;446;0.0198;0.0043;0.00079;0.0107;350
4412;446;0.0198;0.0043;0.000791;0.00998;350
4414;446;0.0198;0.0043;0.000786;0.00923;350
4416;446;0.0198;0.0043;0.000791;0.012;350
4418;446;0.0198;0.0043;0.000792;0.0116;350
4420;446;0.0198;0.0043;0.000779;0.0137;350
4422;447;0.0198;0.0043;0.000783;0.0139;350
4424;447;0.0198;0.0044;0.000775;0.0142;350
4426;447;0.0198;0.0044;0.000763;0.0159;350
4428;447;0.0198;0.0044;0.000768;0.0137;350
4430;447;0.0198;0.0044;0.000758;0.0126;350
4432;447;0.0198;0.0044;0.000743;0.0123;350
4434;447;0.0198;0.0044;0.000734;0.011;350
4436;447;0.0198;0.0044;0.000724;0.0133;350
4438;447;0.0198;0.0044;0.000702;0.0128;350
4440;447;0.0198;0.0044;0.000706;0.0138;350
4442;447;0.0198;0.0044;0.000691;0.0158;350
4444;447;0.0198;0.0044;0.000679;0.016;350
4446;447;0.0198;0.0044;0.000672;0.0174;350
4448;447;0.0198;0.0045;0.000658;0.0155;350
4450;447;0.0198;0.0045;0.000649;0.0144;350
4452;447;0.0198;0.0045;0.000641;0.0134;350
4454;447;0.0198;0.0045;0.000624;0.014;350
4456;447;0.0198;0.0045;0.000621;0.0174;350
4458;447;0.0198;0.0045;0.00061;0.0165;350
4460;447;0.0198;0.0045;0.000588;0.0156;350
4462;447;0.0198;0.0045;0.00059;0.0153;350
4464;447;0.0198;0.0045;0.000582;0.0136;350
4466;447;0.0198;0.0045;0.000567;0.0164;350
4468;447;0.0198;0.0045;0.000562;0.0167;350
4470;447;0.0198;0.0045;0.000541;0.0169;350
4472;448;0.0198;0.0045;0.000546;0.0164;350
4474;448;0.0198;0.0046;0.000528;0.0141;350
4476;448;0.0198;0.0046;0.000525;0.0172;343
4478;448;0.0198;0.0046;0.000512;0.0175;315
4480;448;0.0198;0.0046;0.000501;0.0166;294
4482;448;0.0198;0.0046;0.000496;0.0174;294
4484;448;0.0198;0.0046;0.000488;0.0157;266
4486;448;0.0198;0.0046;0.000479;0.0185;273
4488;448;0.0198;0.0046;0.00047;0.0191;301
4490;448;0.0198;0.0046;0.000465;0.0197;322
4492;448;0.0198;0.0046;0.000464;0.022;322
4494;448;0.0198;0.0046;0.000454;0.0208;350
4496;448;0.0198;0.0046;0.000452;0.0207;350
4498;448;0.0198;0.0046;0.000445;0.0193;350
4500;448;0.0198;0.0046;0.000443;0.0177;350
4502;448;0.0198;0.0046;0.000437;0.0195;350
4504;448;0.0198;0.0046;0.000427;0.0193;350
4506;448;0.0198;0.0046;0.000428;0.0225;350
4508;449;0.0198;0.0047;0.000415;0.0221;350
4510;449;0.0198;0.0047;0.000409;0.0227;350
4512;449;0.0198;0.0047;0.000412;0.0245;350
4514;449;0.0198;0.0047;0.000404;0.0207;350
4516;449;0.0198;0.0047;0.000396;0.0195;350
4518;449;0.0198;0.0047;0.000398;0.0214;350
4520;449;0.0198;0.0047;0.000388;0.0234;350
4522;449;0.0198;0.0047;0.000386;0.0241;350
4524;449;0.0198;0.0047;0.000386;0.0225;350
4526;449;0.0198;0.0047;0.000379;0.0227;350
4528;449;0.0198;0.0047;0.000375;0.0225;350
4530;449;0.0198;0.0047;0.000377;0.0229;350
4532;449;0.0198;0.0047;0.000369;0.0258;350
4534;449;0.0198;0.0047;0.000367;0.0261;350
4536;450;0.0198;0.0047;0.000369;0.0273;350
4538;450;0.0198;0.0047;0.000365;0.0248;350
4540;450;0.0198;0.0047;0.000363;0.0232;350
4542;450;0.0198;0.0047;0.000368;0.0271;350
4544;450;0.0198;0.0047;0.000367;0.027;350
4546;450;0.0198;0.0047;0.000361;0.0283;350
4548;450;0.0198;0.0047;0.000361;0.0276;350
4550;450;0.0198;0.0047;0.000364;0.0271;350
4552;450;0.0198;0.0047;0.000364;0.0283;350
4554;450;0.0198;0.0047;0.000358;0.0267;350
4556;450;0.0198;0.0047;0.000354;0.0275;350
4558;450;0.0198;0.0047;0.000362;0.0284;350
4560;450;0.0198;0.0047;0.00036;0.0282;350
4562;451;0.0198;0.0047;0.000356;0.0302;350
4564;451;0.0198;0.0047;0.00035;0.0296;350
4566;451;0.0198;0.0047;0.000353;0.0316;350
4568;451;0.0198;0.0047;0.00035;0.0313;350
4570;451;0.0198;0.0047;0.000346;0.0317;350
4572;451;0.0198;0.0047;0.000344;0.0337;350
4574;451;0.0198;0.0047;0.000343;0.0328;350
4576;451;0.0198;0.0047;0.000345;0.0346;350
4578;451;0.0198;0.0047;0.000345;0.0349;350
4580;451;0.0198;0.0047;0.000344;0.0337;350
4582;451;0.0198;0.0047;0.000339;0.0344;350
4584;451;0.0198;0.0047;0.000337;0.0324;350
4586;452;0.0198;0.0047;0.000338;0.0318;350
4588;452;0.0198;0.0047;0.000343;0.0323;350
4590;452;0.0198;0.0047;0.000343;0.0306;350
4592;452;0.0198;0.0047;0.000347;0.0332;350
4594;452;0.0198;0.0047;0.000341;0.033;350
4596;452;0.0198;0.0047;0.000335;0.0362;350
4598;452;0.0198;0.0047;0.000331;0.0373;350
4600;452;0.0198;0.0047;0.00033;0.0362;350
4602;452;0.0198;0.0047;0.000336;0.0375;350
4604;452;0.0198;0.0047;0.000338;0.0356;350
4606;452;0.0198;0.0047;0.000337;0.0357;350
4608;453;0.0198;0.0047;0.000334;0.0367;350
4610;453;0.0198;0.0047;0.000337;0.0362;350
4612;453;0.0198;0.0047;0.000332;0.0382;350
4614;453;0.0198;0.0047;0.000329;0.0384;350
4616;453;0.0198;0.0047;0.000324;0.0386;350
4618;453;0.0198;0.0047;0.000334;0.0403;350
4620;453;0.0198;0.0047;0.000338;0.0389;350
4622;453;0.0198;0.0047;0.000338;0.04;350
4624;453;0.0198;0.0047;0.000335;0.0389;350
4626;453;0.0198;0.0047;0.000334;0.0397;350
4628;453;0.0198;0.0047;0.000336;0.0401;350
4630;453;0.0198;0.0047;0.000333;0.04;350
4632;453;0.0198;0.0047;0.000329;0.0422;350
4634;453;0.0198;0.0047;0.000329;0.0411;350
4636;453;0.0198;0.0047;0.000327;0.0421;350
4638;453;0.0198;0.0047;0.000329;0.0431;350
4640;453;0.0198;0.0047;0.000333;0.0432;350
4642;453;0.0198;0.0047;0.000332;0.0451;350
4644;453;0.0198;0.0047;0.000335;0.0453;350
4646;453;0.0198;0.0047;0.000332;0.0452;350
4648;453;0.0198;0.0047;0.000332;0.0459;350
4650;454;0.0198;0.0047;0.00033;0.0449;350
4652;454;0.0198;0.0047;0.000329;0.0466;350
4654;454;0.0198;0.0047;0.000327;0.0447;350
4656;454;0.0198;0.0047;0.000325;0.0459;350
4658;454;0.0198;0.0047;0.000325;0.0462;350
4660;454;0.0198;0.0047;0.000324;0.0462;350
4662;454;0.0198;0.0047;0.000323;0.0482;350
4664;454;0.0198;0.0047;0.00032;0.0479;350
4666;454;0.0198;0.0047;0.000317;0.0488;350
4668;454;0.0198;0.0047;0.000314;0.0491;350
4670;454;0.0198;0.0047;0.000313;0.0491;350
4672;454;0.0198;0.0047;0.000317;0.0517;350
4674;454;0.0198;0.0047;0.000323;0.0514;350
4676;454;0.0198;0.0047;0.000325;0.0523;350
4678;454;0.0198;0.0047;0.000326;0.0537;350
4680;454;0.0198;0.0047;0.000327;0.0521;350
4682;454;0.0198;0.0047;0.000324;0.0533;350
4684;454;0.0198;0.0047;0.000323;0.0519;350
4686;454;0.0198;0.0047;0.000322;0.0525;350
4688;454;0.0198;0.0047;0.000322;0.0516;350
4690;454;0.0198;0.0047;0.000326;0.0512;350
4692;454;0.0198;0.0047;0.000323;0.0513;350
4694;454;0.0198;0.0047;0.000321;0.0512;350
4696;454;0.0198;0.0047;0.000321;0.051;350
4698;454;0.0198;0.0047;0.00032;0.0529;350
4700;454;0.0198;0.0047;0.000319;0.0522;350
4702;454;0.0198;0.0047;0.000315;0.0541;350
4704;454;0.0198;0.0047;0.000318;0.0532;350
4706;454;0.0198;0.0047;0.000319;0.0541;350
4708;454;0.0198;0.0047;0.000323;0.0553;350
4710;454;0.0198;0.0047;0.000326;0.0557;350
4712;455;0.0198;0.0047;0.000326;0.0571;350
4714;454;0.0198;0.0047;0.000328;0.0562;350
4716;455;0.0198;0.0047;0.000332;0.0559;350
4718;455;0.0198;0.0047;0.000332;0.0565;350
4720;455;0.0198;0.0047;0.000333;0.0552;350
4722;455;0.0198;0.0047;0.000333;0.056;350
4724;455;0.0198;0.0047;0.000335;0.054;350
4726;455;0.0198;0.0047;0.000335;0.0546;350
4728;455;0.0198;0.0047;0.000333;0.0561;350
4730;455;0.0198;0.0047;0.000325;0.0547;350
4732;456;0.0198;0.0047;0.000325;0.057;350
4734;456;0.0198;0.0047;0.000325;0.0561;350
4736;456;0.0198;0.0047;0.000324;0.0576;350
4738;456;0.0198;0.0047;0.000325;0.0589;350
4740;456;0.0198;0.0047;0.000324;0.0596;350
4742;456;0.0198;0.0047;0.000323;0.0613;350
4744;456;0.0198;0.0047;0.000321;0.0613;350
4746;456;0.0198;0.0047;0.00032;0.0611;350
4748;456;0.0198;0.0047;0.000319;0.0615;350
4750;456;0.0198;0.0047;0.000317;0.0585;350
4752;456;0.0198;0.0047;0.000316;0.0594;350
4754;457;0.0198;0.0047;0.000314;0.058;350
4756;457;0.0198;0.0047;0.000313;0.0581;350
4758;457;0.0198;0.0047;0.000315;0.0602;350
4760;457;0.0198;0.0047;0.000318;0.0597;350
4762;457;0.0198;0.0047;0.000323;0.0618;350
4764;457;0.0198;0.0047;0.000322;0.0622;350
4766;457;0.0198;0.0047;0.000324;0.063;350
4768;457;0.0198;0.0047;0.000323;0.0638;350
4770;457;0.0198;0.0047;0.000318;0.063;350
4772;457;0.0198;0.0047;0.000315;0.0633;350
4774;457;0.0198;0.0047;0.000317;0.0615;350
4776;457;0.0198;0.0047;0.000319;0.0605;350
4778;457;0.0198;0.0047;0.000323;0.0616;350
4780;457;0.0198;0.0047;0.000324;0.0608;350
4782;458;0.0198;0.0047;0.000321;0.063;350
4784;458;0.0198;0.0047;0.000323;0.0625;350
4786;458;0.0198;0.0047;0.000328;0.0632;350
4788;458;0.0198;0.0047;0.000322;0.0656;350
4790;458;0.0198;0.0047;0.000329;0.0654;350
4792;458;0.0198;0.0047;0.000327;0.0662;350
4794;458;0.0198;0.0047;0.000329;0.0669;350
4796;458;0.0198;0.0047;0.000335;0.0657;350
4798;458;0.0198;0.0047;0.000332;0.0671;350
4800;458;0.0198;0.0047;0.000332;0.0641;350
4802;458;0.0198;0.0047;0.000335;0.0649;350
4804;458;0.0198;0.0047;0.00033;0.0644;350
4806;458;0.0198;0.0047;0.000331;0.0643;350
4808;458;0.0198;0.0047;0.000335;0.0654;350
4810;458;0.0198;0.0047;0.000326;0.0657;350
4812;458;0.0198;0.0047;0.000335;0.0672;350
4814;458;0.0198;0.0047;0.000336;0.0678;350
4816;458;0.0198;0.0047;0.000328;0.0688;350
4818;458;0.0198;0.0047;0.000336;0.0707;350
4820;458;0.0198;0.0047;0.000332;0.0702;350
4822;459;0.0198;0.0047;0.00033;0.0713;350
4824;459;0.0198;0.0047;0.000333;0.07;350
4826;459;0.0198;0.0047;0.000324;0.0688;350
4828;459;0.0198;0.0047;0.00033;0.0685;350
4830;459;0.0198;0.0047;0.000327;0.0675;350
4832;459;0.0198;0.0047;0.000328;0.0691;350
4834;459;0.0198;0.0047;0.000326;0.0694;350
4836;459;0.0198;0.0047;0.000333;0.0697;350
4838;459;0.0198;0.0047;0.000331;0.0722;350
4840;459;0.0198;0.0047;0.000328;0.0714;350
4842;459;0.0198;0.0047;0.000328;0.0736;350
4844;459;0.0198;0.0047;0.000328;0.0748;350
4846;459;0.0198;0.0047;0.000328;0.0755;350
4848;459;0.0198;0.0047;0.000326;0.0766;350
4850;459;0.0198;0.0047;0.000328;0.0758;350
4852;459;0.0198;0.0047;0.000327;0.0761;350
4854;459;0.0198;0.0047;0.00033;0.0745;350
4856;459;0.0198;0.0047;0.000325;0.0737;350
4858;459;0.0198;0.0047;0.000327;0.0755;350
4860;460;0.0198;0.0047;0.000322;0.0747;350
4862;460;0.0198;0.0047;0.000326;0.0765;350
4864;460;0.0198;0.0047;0.000327;0.0772;350
4866;460;0.0198;0.0047;0.000322;0.0774;350
4868;460;0.0198;0.0047;0.000328;0.0802;350
4870;460;0.0198;0.0047;0.000324;0.0803;350
4872;460;0.0198;0.0047;0.000328;0.0824;350
4874;460;0.0198;0.0047;0.000329;0.0824;350
4876;460;0.0198;0.0047;0.000321;0.0811;350
4878;460;0.0198;0.0047;0.000324;0.0821;350
4880;460;0.0198;0.0047;0.000316;0.0805;350
4882;460;0.0198;0.0047;0.000324;0.0807;350
4884;460;0.0198;0.0047;0.000317;0.0814;350
4886;460;0.0198;0.0047;0.000319;0.0817;350
4888;460;0.0198;0.0047;0.000321;0.0849;350
4890;460;0.0198;0.0047;0.000316;0.0852;350
4892;460;0.0198;0.0047;0.000317;0.0879;350
4894;461;0.0198;0.0047;0.00031;0.0879;350
4896;461;0.0198;0.0047;0.000316;0.086;350
4898;461;0.0198;0.0047;0.000311;0.0857;350
4900;461;0.0198;0.0047;0.00032;0.0834;350
4902;461;0.0198;0.0047;0.000317;0.0865;350
4904;461;0.0198;0.0047;0.000328;0.0881;350
4906;461;0.0198;0.0047;0.000325;0.0904;350
4908;461;0.0198;0.0047;0.000326;0.0927;350
4910;461;0.0198;0.0047;0.000331;0.0889;350
4912;461;0.0198;0.0047;0.000327;0.0884;350
4914;461;0.0198;0.0047;0.000332;0.0908;350
4916;461;0.0198;0.0047;0.000336;0.0923;350
4918;461;0.0198;0.0047;0.000336;0.0925;350
4920;461;0.0198;0.0047;0.000337;0.0889;350
4922;461;0.0198;0.0047;0.000336;0.0937;350
4924;461;0.0198;0.0047;0.000334;0.0936;350
4926;461;0.0198;0.0047;0.000338;0.0935;350
4928;461;0.0198;0.0047;0.000333;0.0925;350
4930;461;0.0198;0.0047;0.000336;0.0938;350
4932;461;0.0198;0.0047;0.00033;0.0975;350
4934;461;0.0198;0.0047;0.000336;0.0975;350
4936;461;0.0198;0.0047;0.000329;0.0989;350
4938;461;0.0198;0.0047;0.000333;0.0997;350
4940;461;0.0198;0.0047;0.000327;0.0976;350
4942;461;0.0198;0.0047;0.000329;0.0968;350
4944;461;0.0198;0.0047;0.000321;0.0997;350
4946;461;0.0198;0.0047;0.000323;0.102;350
4948;462;0.0198;0.0047;0.000318;0.103;350
4950;462;0.0198;0.0047;0.000321;0.102;350
4952;462;0.0198;0.0047;0.000319;0.104;350
4954;462;0.0198;0.0047;0.000318;0.105;350
4956;462;0.0198;0.0047;0.000323;0.105;350
4958;462;0.0198;0.0047;0.000316;0.106;350
4960;462;0.0198;0.0047;0.000323;0.106;350
4962;462;0.0198;0.0047;0.000318;0.107;350
4964;462;0.0198;0.0047;0.000324;0.107;350
4966;462;0.0198;0.0047;0.000325;0.107;350
4968;462;0.0198;0.0047;0.000328;0.108;350
4970;462;0.0198;0.0047;0.000325;0.108;350
4972;462;0.0198;0.0047;0.000329;0.109;350
4974;462;0.0198;0.0047;0.000324;0.11;350
4976;462;0.0198;0.0047;0.000324;0.109;350
4978;462;0.0198;0.0047;0.000324;0.111;350
4980;462;0.0198;0.0047;0.000316;0.111;350
4982;462;0.0198;0.0047;0.000325;0.113;350
4984;462;0.0198;0.0047;0.000315;0.113;350
4986;462;0.0198;0.0047;0.000326;0.112;350
4988;462;0.0198;0.0047;0.000319;0.113;350
4990;462;0.0198;0.0047;0.000326;0.112;350
4992;462;0.0198;0.0047;0.00032;0.114;350
4994;462;0.0198;0.0047;0.000324;0.113;350
4996;462;0.0198;0.0047;0.000327;0.113;350
4998;462;0.0198;0.0047;0.000319;0.115;350
5000;462;0.0198;0.0047;0.000327;0.114;350
5002;462;0.0198;0.0047;0.000323;0.115;350
5004;462;0.0198;0.0047;0.000317;0.116;350
5006;462;0.0198;0.0047;0.000324;0.116;350
5008;462;0.0198;0.0047;0.000324;0.118;350
5010;462;0.0198;0.0047;0.000317;0.118;350
5012;462;0.0198;0.0047;0.000322;0.119;350
5014;462;0.0198;0.0047;0.000318;0.119;350
5016;462;0.0198;0.0047;0.000322;0.119;350
5018;463;0.0198;0.0047;0.000324;0.121;350
5020;463;0.0198;0.0047;0.000318;0.121;350
5022;463;0.0198;0.0047;0.00032;0.122;350
5024;463;0.0198;0.0047;0.000317;0.123;350
5026;463;0.0198;0.0047;0.000322;0.121;350
5028;463;0.0198;0.0047;0.000315;0.121;350
5030;463;0.0198;0.0047;0.000328;0.119;350
5032;463;0.0198;0.0047;0.000317;0.121;350
5034;463;0.0198;0.0047;0.000324;0.122;350
5036;463;0.0198;0.0047;0.000319;0.124;350
5038;463;0.0198;0.0047;0.000325;0.125;350
5040;463;0.0198;0.0047;0.000321;0.126;350
5042;463;0.0198;0.0047;0.000329;0.128;350
5044;463;0.0198;0.0047;0.000324;0.128;350
5046;463;0.0198;0.0047;0.000329;0.126;350
5048;463;0.0198;0.0047;0.000328;0.127;350
5050;463;0.0198;0.0047;0.000322;0.128;350
5052;463;0.0198;0.0047;0.00033;0.126;350
5054;463;0.0198;0.0047;0.000325;0.126;350
5056;463;0.0198;0.0047;0.000323;0.126;350
5058;463;0.0198;0.0047;0.000327;0.13;350
5060;463;0.0198;0.0047;0.000324;0.13;350
5062;463;0.0198;0.0047;0.000325;0.131;350
5064;463;0.0198;0.0047;0.000328;0.132;350
5066;463;0.0198;0.0047;0.000323;0.133;350
5068;463;0.0198;0.0047;0.000328;0.134;350
5070;463;0.0198;0.0047;0.000331;0.132;350
5072;463;0.0198;0.0047;0.000325;0.133;350
5074;464;0.0198;0.0047;0.000329;0.133;350
5076;464;0.0198;0.0047;0.000332;0.133;350
5078;464;0.0198;0.0047;0.000328;0.136;350
5080;464;0.0198;0.0047;0.000334;0.136;350
5082;464;0.0198;0.0047;0.000331;0.138;350
5084;464;0.0198;0.0047;0.000329;0.139;350
5086;464;0.0198;0.0047;0.000329;0.14;350
5088;464;0.0198;0.0047;0.000331;0.143;350
5090;464;0.0198;0.0047;0.000326;0.142;350
5092;464;0.0198;0.0047;0.000329;0.144;350
5094;464;0.0198;0.0047;0.000331;0.143;350
5096;463;0.0198;0.0047;0.000323;0.144;350
5098;463;0.0198;0.0047;0.000324;0.145;350
5100;463;0.0198;0.0047;0.000324;0.144;350
5102;463;0.0198;0.0047;0.000316;0.145;350
5104;464;0.0198;0.0047;0.000318;0.146;350
5106;464;0.0198;0.0047;0.000316;0.146;350
5108;464;0.0198;0.0047;0.000312;0.148;350
5110;464;0.0198;0.0047;0.000308;0.149;350
5112;463;0.0198;0.0047;0.000312;0.151;350
5114;463;0.0198;0.0047;0.000313;0.152;350
5116;463;0.0198;0.0047;0.000306;0.153;350
5118;463;0.0198;0.0047;0.00031;0.154;350
5120;463;0.0198;0.0047;0.000318;0.152;350
5122;463;0.0198;0.0047;0.000318;0.152;350
5124;463;0.0198;0.0047;0.000314;0.154;350
5126;463;0.0198;0.0047;0.000322;0.156;350
5128;463;0.0198;0.0047;0.000327;0.157;350
5130;463;0.0198;0.0047;0.000325;0.154;350
5132;463;0.0198;0.0047;0.000324;0.158;350
5134;463;0.0198;0.0047;0.000327;0.16;350
5136;463;0.0198;0.0047;0.000328;0.159;350
5138;463;0.0198;0.0047;0.000323;0.161;350
5140;463;0.0198;0.0047;0.000327;0.16;350
5142;463;0.0198;0.0047;0.000327;0.161;350
5144;463;0.0198;0.0047;0.000323;0.162;350
5146;463;0.0198;0.0047;0.000328;0.162;350
5148;463;0.0198;0.0047;0.000328;0.164;350
5150;463;0.0198;0.0047;0.000325;0.162;350
5152;463;0.0198;0.0047;0.00033;0.164;350
5154;463;0.0198;0.0047;0.000333;0.165;350
5156;463;0.0198;0.0047;0.000325;0.165;350
5158;463;0.0198;0.0047;0.000329;0.168;350
5160;463;0.0198;0.0047;0.000331;0.167;350
5162;463;0.0198;0.0047;0.000321;0.169;350
5164;463;0.0198;0.0047;0.000326;0.169;350
5166;463;0.0198;0.0047;0.000328;0.168;350
5168;463;0.0198;0.0047;0.000321;0.17;350
5170;463;0.0198;0.0047;0.000325;0.169;350
5172;463;0.0198;0.0047;0.000326;0.171;350
5174;462;0.0198;0.0047;0.000322;0.171;350
5176;462;0.0198;0.0047;0.000319;0.17;350
5178;462;0.0198;0.0047;0.000323;0.172;350
5180;462;0.0198;0.0047;0.000328;0.172;350
5182;462;0.0198;0.0047;0.000323;0.174;350
5184;462;0.0198;0.0047;0.000329;0.176;350
5186;462;0.0198;0.0047;0.000332;0.177;350
5188;462;0.0198;0.0047;0.000332;0.177;350
5190;462;0.0198;0.0047;0.000326;0.175;350
5192;462;0.0198;0.0047;0.000328;0.178;350
5194;462;0.0198;0.0047;0.000334;0.179;350
5196;462;0.0198;0.0047;0.000333;0.179;350
5198;462;0.0198;0.0047;0.000328;0.18;350
5200;462;0.0198;0.0047;0.000328;0.178;350
5202;461;0.0198;0.0047;0.000329;0.181;350
5204;461;0.0198;0.0047;0.000329;0.183;350
5206;461;0.0198;0.0047;0.000328;0.182;350
5208;461;0.0198;0.0047;0.000321;0.184;350
5210;461;0.0198;0.0047;0.000327;0.184;350
5212;461;0.0198;0.0047;0.000321;0.185;350
5214;461;0.0198;0.0047;0.000328;0.186;350
5216;461;0.0198;0.0047;0.000331;0.185;350
5218;461;0.0198;0.0047;0.000326;0.187;350
5220;461;0.0198;0.0047;0.000331;0.186;350
5222;461;0.0198;0.0047;0.00032;0.188;350
5224;461;0.0198;0.0047;0.000331;0.19;350
5226;461;0.0198;0.0047;0.00033;0.191;350
5228;461;0.0198;0.0047;0.000329;0.193;350
5230;461;0.0198;0.0047;0.00033;0.194;350
5232;461;0.0198;0.0047;0.000324;0.193;350
5234;460;0.0198;0.0047;0.000325;0.194;350
5236;460;0.0198;0.0047;0.000319;0.193;350
5238;460;0.0198;0.0047;0.00032;0.195;350
5240;460;0.0198;0.0047;0.000322;0.195;350
5242;460;0.0198;0.0047;0.000319;0.196;350
5244;460;0.0198;0.0047;0.000322;0.197;350
5246;460;0.0198;0.0047;0.00032;0.198;350
5248;460;0.0198;0.0047;0.000317;0.2;350
5250;460;0.0198;0.0047;0.000321;0.2;350
5252;460;0.0198;0.0047;0.000315;0.201;350
5254;460;0.0198;0.0047;0.000321;0.202;350
5256;460;0.0198;0.0047;0.000323;0.202;350
5258;460;0.0198;0.0047;0.000313;0.204;350
5260;460;0.0198;0.0047;0.000322;0.203;350
5262;460;0.0198;0.0047;0.000319;0.204;350
5264;460;0.0198;0.0047;0.000312;0.205;350
5266;460;0.0198;0.0047;0.00032;0.204;350
5268;460;0.0198;0.0047;0.000321;0.206;350
5270;460;0.0198;0.0047;0.000314;0.205;350
5272;460;0.0198;0.0047;0.00032;0.205;350
5274;460;0.0198;0.0047;0.000319;0.208;350
5276;460;0.0198;0.0047;0.00031;0.208;350
5278;460;0.0198;0.0047;0.000315;0.21;350
5280;460;0.0198;0.0047;0.00032;0.21;350
5282;460;0.0198;0.0047;0.000313;0.21;350
5284;460;0.0198;0.0047;0.000314;0.212;350
5286;460;0.0198;0.0047;0.000322;0.212;350
5288;460;0.0198;0.0047;0.000321;0.214;350
5290;460;0.0198;0.0047;0.000311;0.214;350
5292;459;0.0198;0.0047;0.000314;0.214;350
5294;459;0.0198;0.0047;0.000321;0.214;350
5296;459;0.0198;0.0047;0.000317;0.215;350
5298;459;0.0198;0.0047;0.000311;0.216;350
5300;459;0.0198;0.0047;0.000315;0.217;350
5302;459;0.0198;0.0047;0.000318;0.216;350
5304;459;0.0198;0.0047;0.000317;0.22;350
5306;459;0.0198;0.0047;0.000309;0.219;350
5308;459;0.0198;0.0047;0.000311;0.221;350
5310;459;0.0198;0.0047;0.000319;0.221;350
5312;459;0.0198;0.0047;0.000314;0.222;350
5314;459;0.0198;0.0047;0.000315;0.223;350
5316;459;0.0198;0.0047;0.000322;0.223;350
5318;459;0.0198;0.0047;0.000314;0.225;350
5320;459;0.0198;0.0047;0.000323;0.225;350
5322;459;0.0198;0.0047;0.000323;0.225;350
5324;459;0.0198;0.0047;0.00032;0.226;350
5326;459;0.0198;0.0047;0.000324;0.225;350
5328;459;0.0198;0.0047;0.000321;0.227;350
5330;459;0.0198;0.0047;0.000321;0.226;350
5332;459;0.0198;0.0047;0.000324;0.226;350
5334;458;0.0198;0.0047;0.000318;0.228;350
5336;458;0.0198;0.0047;0.000321;0.228;350
5338;458;0.0198;0.0047;0.000318;0.23;350
5340;458;0.0198;0.0047;0.000308;0.23;350
5342;458;0.0198;0.0047;0.000314;0.231;350
5344;458;0.0198;0.0047;0.000314;0.233;350
5346;458;0.0198;0.0047;0.000314;0.233;350
5348;458;0.0198;0.0047;0.000315;0.235;350
5350;458;0.0198;0.0047;0.000316;0.235;350
5352;458;0.0198;0.0047;0.000314;0.235;350
5354;458;0.0198;0.0047;0.000313;0.237;350
5356;458;0.0198;0.0047;0.00031;0.235;350
5358;458;0.0198;0.0047;0.000307;0.236;350
5360;458;0.0198;0.0047;0.000309;0.237;350
5362;458;0.0198;0.0047;0.00031;0.237;350
5364;458;0.0198;0.0047;0.000315;0.24;350
5366;458;0.0198;0.0047;0.000316;0.239;350
5368;458;0.0198;0.0047;0.000319;0.24;350
5370;458;0.0198;0.0047;0.000317;0.241;350
5372;458;0.0198;0.0047;0.000318;0.242;350
5374;458;0.0198;0.0047;0.000318;0.245;350
5376;458;0.0198;0.0047;0.00032;0.245;350
5378;458;0.0198;0.0047;0.00032;0.246;350
5380;458;0.0198;0.0047;0.000321;0.247;350
5382;458;0.0198;0.0047;0.000321;0.247;350
5384;458;0.0198;0.0047;0.000319;0.249;350
5386;458;0.0198;0.0047;0.000318;0.249;350
5388;458;0.0198;0.0047;0.000317;0.248;350
5390;458;0.0198;0.0047;0.00032;0.248;350
5392;458;0.0198;0.0047;0.00032;0.25;350
5394;458;0.0198;0.0047;0.000321;0.252;350
5396;458;0.0198;0.0047;0.000321;0.251;350
5398;458;0.0198;0.0047;0.000322;0.254;350
5400;458;0.0198;0.0047;0.000319;0.253;350
5402;458;0.0198;0.0047;0.000319;0.253;350
5404;458;0.0198;0.0047;0.000317;0.256;350
5406;458;0.0198;0.0047;0.000318;0.255;350
5408;458;0.0198;0.0047;0.000319;0.256;350
5410;458;0.0198;0.0047;0.000317;0.257;350
5412;458;0.0198;0.0047;0.000314;0.258;350
5414;458;0.0198;0.0047;0.000312;0.261;350
5416;458;0.0198;0.0047;0.000311;0.26;350
5418;458;0.0198;0.0047;0.000309;0.262;350
5420;458;0.0198;0.0047;0.000307;0.261;350
5422;458;0.0198;0.0047;0.000306;0.26;350
5424;458;0.0198;0.0047;0.000303;0.262;350
5426;458;0.0198;0.0047;0.000302;0.261;350
5428;458;0.0198;0.0047;0.000304;0.263;350
5430;458;0.0198;0.0047;0.000308;0.263;350
5432;458;0.0198;0.0047;0.000309;0.263;350
5434;458;0.0198;0.0047;0.000309;0.266;350
5436;458;0.0198;0.0047;0.00031;0.266;350
5438;458;0.0198;0.0047;0.000308;0.267;350
5440;458;0.0198;0.0047;0.000306;0.268;350
5442;458;0.0198;0.0047;0.000306;0.268;350
5444;458;0.0198;0.0047;0.000304;0.27;350
5446;458;0.0198;0.0047;0.000303;0.269;350
5448;458;0.0198;0.0047;0.000308;0.27;350
5450;458;0.0198;0.0047;0.000309;0.27;350
5452;458;0.0198;0.0047;0.000309;0.27;350
5454;458;0.0198;0.0047;0.000309;0.271;350
5456;458;0.0198;0.0047;0.000307;0.27;350
5458;458;0.0198;0.0047;0.000303;0.272;350
5460;458;0.0198;0.0047;0.000301;0.273;350
5462;458;0.0198;0.0047;0.000309;0.273;350
5464;458;0.0198;0.0047;0.000309;0.274;350
5466;458;0.0198;0.0047;0.000309;0.274;350
5468;458;0.0198;0.0047;0.000305;0.275;350
5470;458;0.0198;0.0047;0.000302;0.276;350
5472;458;0.0198;0.0047;0.000299;0.276;350
5474;458;0.0198;0.0047;0.000306;0.278;350
5476;458;0.0198;0.0047;0.000306;0.278;350
5478;458;0.0198;0.0047;0.000306;0.278;350
5480;458;0.0198;0.0047;0.000304;0.279;350
5482;458;0.0198;0.0047;0.000305;0.277;350
5484;458;0.0198;0.0047;0.00031;0.278;350
5486;458;0.0198;0.0047;0.000311;0.277;350
5488;458;0.0198;0.0047;0.000311;0.278;350
5490;458;0.0198;0.0047;0.000306;0.279;350
5492;458;0.0198;0.0047;0.000302;0.28;350
5494;458;0.0198;0.0047;0.00031;0.282;350
5496;458;0.0198;0.0047;0.000313;0.281;350
5498;458;0.0198;0.0047;0.00031;0.283;350
5500;458;0.0198;0.0047;0.000304;0.284;350
5502;458;0.0198;0.0047;0.000301;0.283;350
5504;458;0.0198;0.0047;0.000302;0.284;350
5506;458;0.0198;0.0047;0.000307;0.283;350
5508;458;0.0198;0.0047;0.000305;0.283;350
5510;458;0.0198;0.0047;0.000309;0.284;350
5512;458;0.0198;0.0047;0.000301;0.283;350
5514;458;0.0198;0.0047;0.000308;0.285;350
5516;458;0.0198;0.0047;0.000304;0.284;350
5518;458;0.0198;0.0047;0.000307;0.286;350
5520;458;0.0198;0.0047;0.000304;0.287;350
5522;458;0.0198;0.0047;0.000309;0.287;350
5524;458;0.0198;0.0047;0.000306;0.29;350
5526;458;0.0198;0.0047;0.000306;0.288;350
5528;458;0.0198;0.0047;0.000306;0.287;350
5530;458;0.0198;0.0047;0.000302;0.286;350
5532;458;0.0198;0.0047;0.000307;0.287;350
5534;458;0.0198;0.0047;0.0003;0.29;350
5536;458;0.0198;0.0047;0.000307;0.288;350
5538;458;0.0198;0.0047;0.000304;0.288;350
5540;458;0.0198;0.0047;0.000308;0.288;350
5542;458;0.0198;0.0047;0.000302;0.287;350
5544;458;0.0198;0.0047;0.000304;0.29;350
5546;458;0.0198;0.0047;0.000301;0.29;350
5548;458;0.0198;0.0047;0.000304;0.291;350
5550;458;0.0198;0.0047;0.000296;0.29;350
5552;458;0.0198;0.0047;0.000302;0.288;350
5554;458;0.0198;0.0047;0.000297;0.288;350
5556;458;0.0198;0.0047;0.0003;0.289;350
5558;458;0.0198;0.0047;0.000293;0.29;350
5560;458;0.0198;0.0047;0.000298;0.293;350
5562;458;0.0198;0.0047;0.000291;0.291;350
5564;458;0.0198;0.0047;0.000296;0.292;350
5566;458;0.0198;0.0047;0.00029;0.29;350
5568;458;0.0198;0.0047;0.000294;0.29;350
5570;458;0.0198;0.0047;0.000299;0.291;350
5572;458;0.0198;0.0047;0.000297;0.292;350
5574;458;0.0198;0.0047;0.000299;0.294;350
5576;458;0.0198;0.0047;0.000297;0.291;350
5578;458;0.0198;0.0047;0.000301;0.291;350
5580;458;0.0198;0.0047;0.000296;0.293;350
5582;458;0.0198;0.0047;0.000302;0.294;350
5584;458;0.0198;0.0047;0.000298;0.295;350
5586;458;0.0198;0.0047;0.000301;0.294;350
5588;458;0.0198;0.0047;0.000301;0.295;350
5590;458;0.0198;0.0047;0.000296;0.295;350
5592;458;0.0198;0.0047;0.000301;0.295;350
5594;458;0.0198;0.0047;0.000294;0.296;350
5596;458;0.0198;0.0047;0.000303;0.296;350
5598;458;0.0198;0.0047;0.000298;0.295;350
5600;458;0.0198;0.0047;0.000303;0.297;350
5602;458;0.0198;0.0047;0.000303;0.296;350
5604;458;0.0198;0.0047;0.000296;0.298;350
5606;458;0.0198;0.0047;0.000302;0.297;350
5608;458;0.0198;0.0047;0.000303;0.298;350
5610;458;0.0198;0.0047;0.000298;0.299;350
5612;458;0.0198;0.0047;0.000301;0.298;350
5614;458;0.0198;0.0047;0.000303;0.3;350
5616;458;0.0198;0.0047;0.000295;0.3;350
5618;458;0.0198;0.0047;0.000302;0.3;350
5620;458;0.0198;0.0047;0.000301;0.301;350
5622;458;0.0198;0.0047;0.000298;0.301;350
5624;458;0.0198;0.0047;0.000301;0.302;350
5626;458;0.0198;0.0047;0.000303;0.301;350
5628;458;0.0198;0.0047;0.000293;0.301;350
5630;458;0.0198;0.0047;0.000301;0.301;350
5632;458;0.0198;0.0047;0.000301;0.301;350
5634;458;0.0198;0.0047;0.000296;0.302;350
5636;458;0.0198;0.0047;0.000295;0.302;350
5638;458;0.0198;0.0047;0.0003;0.303;350
5640;458;0.0198;0.0047;0.000291;0.305;350
5642;458;0.0198;0.0047;0.000294;0.307;350
5644;458;0.0198;0.0047;0.000296;0.308;350
5646;458;0.0198;0.0047;0.00029;0.304;350
5648;458;0.0198;0.0047;0.000291;0.302;350
5650;458;0.0198;0.0047;0.000294;0.304;350
5652;458;0.0198;0.0047;0.000293;0.304;350
5654;458;0.0198;0.0048;0.000288;0.306;350
5656;458;0.0198;0.0047;0.000292;0.305;350
5658;458;0.0198;0.0047;0.000293;0.303;350
5660;457;0.0198;0.0047;0.000295;0.304;350
5662;457;0.0198;0.0047;0.000293;0.304;350
5664;458;0.0198;0.0048;0.000283;0.306;350
5666;457;0.0198;0.0047;0.000293;0.306;350
5668;457;0.0198;0.0047;0.000293;0.306;350
5670;457;0.0198;0.0047;0.000294;0.308;350
5672;457;0.0198;0.0047;0.000292;0.307;350
5674;457;0.0198;0.0048;0.00028;0.307;350
5676;457;0.0198;0.0048;0.000287;0.306;350
5678;457;0.0198;0.0048;0.000287;0.306;350
5680;457;0.0198;0.0047;0.00029;0.308;350
5682;457;0.0198;0.0047;0.00029;0.308;350
5684;457;0.0198;0.0048;0.000288;0.31;350
5686;457;0.0198;0.0048;0.000284;0.31;350
5688;457;0.0198;0.0048;0.000283;0.311;350
5690;457;0.0198;0.0048;0.000282;0.311;350
5692;457;0.0198;0.0048;0.000285;0.31;350
5694;457;0.0198;0.0047;0.000289;0.311;350
5696;457;0.0198;0.0048;0.000287;0.31;350
5698;457;0.0198;0.0048;0.000285;0.31;350
5700;457;0.0198;0.0048;0.000285;0.312;350
5702;457;0.0198;0.0048;0.000285;0.311;350
5704;457;0.0198;0.0048;0.000289;0.312;350
5706;457;0.0198;0.0048;0.000288;0.312;350
5708;457;0.0198;0.0047;0.00029;0.312;350
5710;457;0.0198;0.0048;0.000289;0.314;350
5712;457;0.0198;0.0048;0.000285;0.312;350
5714;457;0.0198;0.0048;0.000287;0.313;350
5716;457;0.0198;0.0048;0.000289;0.315;350
5718;457;0.0198;0.0047;0.000291;0.314;350
5720;457;0.0198;0.0047;0.000295;0.316;350
5722;457;0.0198;0.0047;0.000294;0.315;350
5724;456;0.0198;0.0047;0.000295;0.317;350
5726;456;0.0198;0.0047;0.00029;0.318;350
5728;456;0.0198;0.0047;0.000296;0.317;350
5730;456;0.0198;0.0047;0.000295;0.319;350
5732;456;0.0198;0.0047;0.000294;0.318;350
5734;456;0.0198;0.0048;0.000289;0.32;350
5736;456;0.0198;0.0047;0.00029;0.318;350
5738;456;0.0198;0.0048;0.000289;0.317;350
5740;456;0.0198;0.0047;0.00029;0.319;350
5742;456;0.0198;0.0047;0.000293;0.318;350
5744;456;0.0198;0.0047;0.000292;0.32;350
5746;456;0.0198;0.0047;0.000294;0.322;350
5748;456;0.0198;0.0047;0.00029;0.323;350
5750;456;0.0198;0.0048;0.000287;0.324;350
5752;456;0.0198;0.0047;0.000292;0.321;350
5754;456;0.0198;0.0047;0.000294;0.321;350
5756;456;0.0198;0.0047;0.000298;0.322;350
5758;456;0.0198;0.0047;0.000301;0.323;350
5760;456;0.0198;0.0047;0.000301;0.324;350
5762;456;0.0198;0.0047;0.000302;0.324;350
5764;456;0.0198;0.0047;0.0003;0.324;350
5766;456;0.0198;0.0047;0.000297;0.323;350
5768;456;0.0198;0.0047;0.000294;0.323;350
5770;456;0.0198;0.0047;0.000298;0.326;350
5772;456;0.0198;0.0047;0.000295;0.325;350
5774;456;0.0198;0.0047;0.000295;0.327;350
5776;456;0.0198;0.0047;0.000293;0.327;350
5778;456;0.0198;0.0047;0.000297;0.327;350
5780;456;0.0198;0.0047;0.000293;0.33;350
5782;456;0.0198;0.0047;0.000293;0.327;350
5784;455;0.0198;0.0047;0.000297;0.328;350
5786;455;0.0198;0.0047;0.000295;0.328;350
5788;456;0.0198;0.0047;0.000303;0.328;350
5790;455;0.0198;0.0047;0.000292;0.331;350
5792;455;0.0198;0.0047;0.000294;0.331;350
5794;455;0.0198;0.0047;0.000296;0.332;350
5796;456;0.0198;0.0047;0.000291;0.333;350
5798;455;0.0198;0.0047;0.000292;0.332;350
5800;455;0.0198;0.0047;0.000291;0.334;350
5802;455;0.0198;0.0047;0.000295;0.333;350
5804;455;0.0198;0.0047;0.000293;0.334;350
5806;455;0.0198;0.0047;0.000295;0.333;350
5808;455;0.0198;0.0047;0.000295;0.332;350
5810;455;0.0198;0.0047;0.000293;0.335;350
5812;455;0.0198;0.0047;0.00029;0.335;350
5814;455;0.0198;0.0047;0.000294;0.337;350
5816;455;0.0198;0.0047;0.000295;0.338;350
5818;455;0.0198;0.0047;0.000293;0.337;350
5820;455;0.0198;0.0047;0.000293;0.339;350
5822;455;0.0198;0.0047;0.000295;0.338;350
5824;455;0.0198;0.0047;0.00029;0.339;350
5826;455;0.0198;0.0047;0.000296;0.34;350
5828;454;0.0198;0.0047;0.000296;0.339;350
5830;454;0.0198;0.0047;0.000295;0.34;350
5832;454;0.0198;0.0047;0.000296;0.339;350
5834;454;0.0198;0.0047;0.000296;0.34;350
5836;454;0.0198;0.0047;0.000297;0.341;350
5838;454;0.0198;0.0047;0.000299;0.341;350
5840;454;0.0198;0.0047;0.000291;0.343;350
5842;454;0.0198;0.0047;0.000291;0.342;350
5844;454;0.0198;0.0047;0.000291;0.343;350
5846;454;0.0198;0.0047;0.000291;0.344;350
5848;454;0.0198;0.0047;0.000293;0.344;350
5850;454;0.0198;0.0047;0.000295;0.346;350
5852;454;0.0198;0.0047;0.000295;0.345;350
5854;454;0.0198;0.0047;0.000294;0.347;350
5856;454;0.0198;0.0047;0.000296;0.347;350
5858;454;0.0198;0.0047;0.000296;0.345;350
5860;454;0.0198;0.0047;0.000297;0.348;350
5862;454;0.0198;0.0047;0.000298;0.346;350
5864;454;0.0198;0.0047;0.0003;0.347;350
5866;454;0.0198;0.0047;0.000297;0.348;350
5868;454;0.0198;0.0047;0.0003;0.347;350
5870;454;0.0198;0.0047;0.000296;0.349;350
5872;454;0.0198;0.0047;0.000295;0.348;350
5874;453;0.0198;0.0047;0.000295;0.348;350
5876;453;0.0198;0.0047;0.000295;0.349;350
5878;453;0.0198;0.0047;0.000295;0.348;350
5880;453;0.0198;0.0047;0.000293;0.35;350
5882;453;0.0198;0.0047;0.000293;0.349;350
5884;453;0.0198;0.0047;0.000293;0.351;350
5886;453;0.0198;0.0047;0.000294;0.351;350
5888;453;0.0198;0.0047;0.000289;0.35;350
5890;453;0.0198;0.0047;0.00029;0.352;350
5892;453;0.0198;0.0047;0.00029;0.351;350
5894;453;0.0198;0.0047;0.000295;0.352;350
5896;453;0.0198;0.0047;0.000292;0.353;350
5898;453;0.0198;0.0047;0.0003;0.352;350
5900;453;0.0198;0.0047;0.000299;0.354;350
5902;453;0.0198;0.0047;0.000302;0.354;350
5904;453;0.0198;0.0047;0.000302;0.355;350
5906;453;0.0198;0.0047;0.000305;0.354;350
5908;453;0.0198;0.0047;0.000303;0.355;350
5910;453;0.0198;0.0047;0.000301;0.357;350
5912;453;0.0198;0.0047;0.000299;0.356;350
5914;453;0.0198;0.0047;0.000299;0.357;350
5916;453;0.0198;0.0047;0.000299;0.358;350
5918;453;0.0198;0.0047;0.000299;0.356;350
5920;453;0.0198;0.0047;0.000299;0.359;350
5922;453;0.0198;0.0047;0.000299;0.357;350
5924;453;0.0198;0.0047;0.000299;0.359;350
5926;453;0.0198;0.0047;0.000299;0.36;350
5928;453;0.0198;0.0047;0.000299;0.359;350
5930;453;0.0198;0.0047;0.000299;0.36;350
5932;453;0.0198;0.0047;0.000299;0.361;350
5934;453;0.0198;0.0047;0.000299;0.361;350
5936;453;0.0198;0.0047;0.000299;0.362;350
5938;453;0.0198;0.0047;0.000299;0.362;350
5940;453;0.0198;0.0047;0.000299;0.364;350
5942;453;0.0198;0.0047;0.000299;0.363;350
5944;453;0.0198;0.0047;0.000299;0.364;350
5946;453;0.0198;0.0047;0.000299;0.365;350
5948;453;0.0198;0.0047;0.000299;0.365;350
5950;453;0.0198;0.0047;0.000299;0.366;350
5952;453;0.0198;0.0047;0.000299;0.365;350
5954;453;0.0198;0.0047;0.000299;0.365;350
5956;453;0.0198;0.0047;0.000299;0.366;350
5958;453;0.0198;0.0047;0.000299;0.364;350
5960;453;0.0198;0.0047;0.000299;0.366;350
5962;453;0.0198;0.0047;0.000299;0.365;350
5964;453;0.0198;0.0047;0.000299;0.365;350
5966;453;0.0198;0.0047;0.000299;0.367;350
5968;453;0.0198;0.0047;0.000299;0.368;350
5970;453;0.0198;0.0047;0.000299;0.37;350
5972;453;0.0198;0.0047;0.000299;0.37;350
5974;453;0.0198;0.0047;0.000299;0.371;350
5976;453;0.0198;0.0047;0.000299;0.371;350
5978;453;0.0198;0.0047;0.000299;0.369;350
5980;453;0.0198;0.0047;0.000299;0.37;350
5982;453;0.0198;0.0047;0.000299;0.369;350
5984;453;0.0198;0.0047;0.000299;0.369;350
5986;453;0.0198;0.0047;0.000299;0.374;350
5988;453;0.0198;0.0047;0.000299;0.373;350
5990;453;0.0198;0.0047;0.000299;0.373;350
5992;453;0.0198;0.0047;0.000299;0.373;350
5994;453;0.0198;0.0047;0.000299;0.374;350
5996;453;0.0198;0.0047;0.000299;0.375;350
5998;453;0.0198;0.0047;0.000299;0.373;350
6000;453;0.0198;0.0047;0.000299;0.374;350
6002;453;0.0198;0.0047;0.000299;0.373;350
6004;453;0.0198;0.0047;0.000299;0.373;350
6006;453;0.0198;0.0047;0.000299;0.377;350
6008;453;0.0198;0.0047;0.000299;0.376;350
6010;453;0.0198;0.0047;0.000299;0.376;350
6012;453;0.0198;0.0047;0.000299;0.374;350
6014;453;0.0198;0.0047;0.000299;0.374;350
6016;453;0.0198;0.0047;0.000299;0.376;350
6018;453;0.0198;0.0047;0.000299;0.376;350
6020;453;0.0198;0.0047;0.000299;0.377;350
6022;453;0.0198;0.0047;0.000299;0.376;350
6024;453;0.0198;0.0047;0.000299;0.375;350
6026;453;0.0198;0.0047;0.000299;0.376;350
6028;453;0.0198;0.0047;0.000299;0.375;350
6030;454;0.0198;0.0047;0.000299;0.376;350
6032;454;0.0198;0.0047;0.000299;0.376;350
6034;454;0.0198;0.0047;0.000299;0.377;350
6036;454;0.0198;0.0047;0.000299;0.379;350
6038;454;0.0198;0.0047;0.000299;0.377;350
6040;454;0.0198;0.0047;0.000299;0.38;350
6042;454;0.0198;0.0047;0.000299;0.379;350
6044;454;0.0198;0.0047;0.000299;0.379;350
6046;454;0.0198;0.0047;0.000299;0.38;350
6048;454;0.0198;0.0047;0.000299;0.38;350
6050;454;0.0198;0.0047;0.000299;0.379;350
6052;454;0.0198;0.0047;0.000299;0.378;350
6054;454;0.0198;0.0047;0.000299;0.379;350
6056;454;0.0198;0.0047;0.000299;0.379;350
6058;454;0.0198;0.0047;0.000299;0.38;350
6060;454;0.0198;0.0047;0.000299;0.384;350
6062;454;0.0198;0.0047;0.000299;0.382;350
6064;454;0.0198;0.0047;0.000299;0.38;350
6066;454;0.0198;0.0047;0.000299;0.382;350
6068;454;0.0198;0.0047;0.000299;0.382;350
6070;454;0.0198;0.0047;0.000299;0.383;350
6072;454;0.0198;0.0047;0.000299;0.383;350
6074;453;0.0198;0.0047;0.000299;0.384;350
6076;453;0.0198;0.0047;0.000299;0.385;350
6078;453;0.0198;0.0047;0.000299;0.384;350
6080;453;0.0198;0.0047;0.000299;0.385;350
6082;453;0.0198;0.0047;0.000299;0.384;350
6084;453;0.0198;0.0047;0.000299;0.384;350
6086;453;0.0198;0.0047;0.000299;0.385;350
6088;453;0.0198;0.0047;0.000299;0.383;350
6090;453;0.0198;0.0047;0.000299;0.385;350
6092;453;0.0198;0.0047;0.000299;0.384;350
6094;453;0.0198;0.0047;0.000299;0.387;350
6096;453;0.0198;0.0047;0.000299;0.387;350
6098;453;0.0198;0.0047;0.000299;0.387;350
6100;453;0.0198;0.0047;0.000299;0.389;350
6102;453;0.0198;0.0047;0.000299;0.387;350
6104;453;0.0198;0.0047;0.000299;0.388;350
6106;453;0.0198;0.0047;0.000299;0.388;350
6108;453;0.0198;0.0047;0.000299;0.387;350
6110;453;0.0198;0.0047;0.000299;0.389;350
6112;453;0.0198;0.0047;0.000299;0.387;350
6114;453;0.0198;0.0047;0.000299;0.387;350
6116;453;0.0198;0.0047;0.000299;0.388;350
6118;453;0.0198;0.0047;0.000299;0.388;350
6120;453;0.0198;0.0047;0.000299;0.391;350
6122;453;0.0198;0.0047;0.000299;0.39;350
6124;453;0.0198;0.0047;0.000299;0.39;350
6126;453;0.0198;0.0047;0.000299;0.392;350
6128;453;0.0198;0.0047;0.000299;0.39;350
6130;452;0.0198;0.0047;0.000299;0.392;350
6132;452;0.0198;0.0047;0.000299;0.389;350
6134;452;0.0198;0.0047;0.000299;0.39;350
6136;452;0.0198;0.0047;0.000299;0.391;350
6138;452;0.0198;0.0047;0.000299;0.389;350
6140;452;0.0198;0.0047;0.000299;0.39;350
6142;452;0.0198;0.0047;0.000299;0.389;350
6144;452;0.0198;0.0047;0.000299;0.39;350
6146;452;0.0198;0.0047;0.000299;0.391;350
6148;452;0.0198;0.0047;0.000299;0.39;350
6150;452;0.0198;0.0047;0.000299;0.391;350
6152;452;0.0198;0.0047;0.000299;0.39;350
6154;452;0.0198;0.0047;0.000299;0.391;350
6156;452;0.0198;0.0047;0.000299;0.393;350
6158;452;0.0198;0.0047;0.000299;0.393;350
6160;452;0.0198;0.0047;0.000299;0.392;350
6162;452;0.0198;0.0047;0.000299;0.391;350
6164;452;0.0198;0.0047;0.000299;0.39;350
6166;452;0.0198;0.0047;0.000299;0.39;350
6168;452;0.0198;0.0047;0.000299;0.39;350
6170;452;0.0198;0.0047;0.000299;0.392;350
6172;452;0.0198;0.0047;0.000299;0.391;350
6174;452;0.0198;0.0047;0.000299;0.393;350
6176;452;0.0198;0.0047;0.000299;0.394;350
6178;452;0.0198;0.0047;0.000299;0.393;350
6180;452;0.0198;0.0047;0.000299;0.395;350
6182;452;0.0198;0.0047;0.000299;0.397;350
6184;452;0.0198;0.0047;0.000299;0.394;350
6186;452;0.0198;0.0047;0.000299;0.391;350
6188;451;0.0198;0.0047;0.000299;0.391;350
6190;451;0.0198;0.0047;0.000299;0.394;350
6192;451;0.0198;0.0047;0.000299;0.393;350
6194;451;0.0198;0.0047;0.000299;0.392;350
6196;451;0.0198;0.0047;0.000299;0.392;350
6198;451;0.0198;0.0047;0.000299;0.393;350
6200;451;0.0198;0.0047;0.000299;0.394;350
6202;451;0.0198;0.0047;0.000299;0.393;350
6204;451;0.0198;0.0047;0.000299;0.392;350
6206;451;0.0198;0.0047;0.000299;0.394;350
6208;451;0.0198;0.0047;0.000299;0.394;350
6210;451;0.0198;0.0047;0.000299;0.395;350
6212;451;0.0198;0.0047;0.000299;0.394;350
6214;451;0.0198;0.0047;0.000299;0.395;350
6216;451;0.0198;0.0047;0.000299;0.395;350
6218;451;0.0198;0.0047;0.000299;0.393;350
6220;451;0.0198;0.0047;0.000299;0.393;350
6222;451;0.0198;0.0047;0.000299;0.394;350
6224;451;0.0198;0.0047;0.000299;0.394;350
6226;450;0.0198;0.0047;0.000299;0.395;350
6228;450;0.0198;0.0047;0.000299;0.394;350
6230;450;0.0198;0.0047;0.000299;0.396;350
6232;450;0.0198;0.0047;0.000299;0.394;350
6234;450;0.0198;0.0047;0.000299;0.394;350
6236;450;0.0198;0.0047;0.000299;0.395;350
6238;450;0.0198;0.0047;0.000299;0.394;350
6240;450;0.0198;0.0047;0.000299;0.395;350
6242;450;0.0198;0.0047;0.000299;0.395;350
6244;450;0.0198;0.0047;0.000299;0.395;350
6246;449;0.0198;0.0047;0.000299;0.396;350
6248;449;0.0198;0.0047;0.000299;0.395;350
6250;449;0.0198;0.0047;0.000299;0.397;350
6252;450;0.0198;0.0047;0.000299;0.397;350
6254;449;0.0198;0.0047;0.000299;0.398;350
6256;449;0.0198;0.0047;0.000299;0.398;350
6258;449;0.0198;0.0047;0.000299;0.395;350
6260;449;0.0198;0.0047;0.000299;0.396;350
6262;449;0.0198;0.0047;0.000299;0.395;350
6264;449;0.0198;0.0047;0.000299;0.396;350
6266;449;0.0198;0.0047;0.000299;0.398;350
6268;449;0.0198;0.0047;0.000299;0.398;350
6270;449;0.0198;0.0047;0.000299;0.401;350
6272;449;0.0198;0.0047;0.000299;0.398;350
6274;449;0.0198;0.0047;0.000299;0.398;350
6276;449;0.0198;0.0047;0.000299;0.399;350
6278;449;0.0198;0.0047;0.000299;0.398;350
6280;449;0.0198;0.0047;0.000299;0.4;350
6282;449;0.0198;0.0047;0.000299;0.399;350
6284;449;0.0198;0.0047;0.000299;0.4;350
6286;449;0.0198;0.0047;0.000299;0.401;350
6288;449;0.0198;0.0047;0.000299;0.401;350
6290;449;0.0198;0.0047;0.000299;0.403;350
6292;448;0.0198;0.0047;0.000299;0.401;350
6294;448;0.0198;0.0047;0.000299;0.401;350
6296;448;0.0198;0.0047;0.000299;0.401;350
6298;448;0.0198;0.0047;0.000299;0.4;350
6300;448;0.0198;0.0047;0.000299;0.401;350
6302;448;0.0198;0.0047;0.000299;0.401;350
6304;448;0.0198;0.0047;0.000299;0.402;350
6306;448;0.0198;0.0047;0.000299;0.403;350
6308;448;0.0198;0.0047;0.000299;0.402;350
6310;448;0.0198;0.0047;0.000299;0.404;350
6312;448;0.0198;0.0047;0.000299;0.404;350
6314;448;0.0198;0.0047;0.000299;0.404;350
6316;448;0.0198;0.0047;0.000299;0.405;350
6318;448;0.0198;0.0047;0.000299;0.404;350
6320;448;0.0198;0.0047;0.000299;0.406;350
6322;448;0.0198;0.0047;0.000299;0.405;350
6324;448;0.0198;0.0047;0.000299;0.405;350
6326;448;0.0198;0.0047;0.000299;0.407;350
6328;448;0.0198;0.0047;0.000299;0.405;350
6330;448;0.0198;0.0047;0.000299;0.406;350
6332;448;0.0198;0.0047;0.000299;0.405;350
6334;448;0.0198;0.0047;0.000299;0.406;350
6336;448;0.0198;0.0047;0.000299;0.407;350
6338;448;0.0198;0.0047;0.000299;0.406;350
6340;448;0.0198;0.0047;0.000299;0.408;350
6342;448;0.0198;0.0047;0.000299;0.407;350
6344;448;0.0198;0.0047;0.000299;0.407;350
6346;448;0.0198;0.0047;0.000299;0.409;350
6348;448;0.0198;0.0047;0.000299;0.408;350
6350;448;0.0198;0.0047;0.000299;0.41;350
6352;448;0.0198;0.0047;0.000299;0.409;350
6354;448;0.0198;0.0047;0.000299;0.41;350
6356;448;0.0198;0.0047;0.000299;0.411;350
6358;448;0.0198;0.0047;0.000299;0.411;350
6360;448;0.0198;0.0047;0.000299;0.413;350
6362;448;0.0198;0.0047;0.000299;0.412;350
6364;448;0.0198;0.0047;0.000299;0.413;350
6366;448;0.0198;0.0047;0.000299;0.414;350
6368;448;0.0198;0.0047;0.000299;0.414;350
6370;448;0.0198;0.0047;0.000299;0.415;350
6372;448;0.0198;0.0047;0.000299;0.415;350
6374;448;0.0198;0.0047;0.000299;0.414;350
6376;448;0.0198;0.0047;0.000299;0.415;350
6378;448;0.0198;0.0047;0.000299;0.414;350
6380;448;0.0198;0.0047;0.000299;0.416;350
6382;448;0.0198;0.0047;0.000299;0.415;350
6384;448;0.0198;0.0047;0.000299;0.416;350
6386;448;0.0198;0.0047;0.000299;0.418;350
6388;448;0.0198;0.0047;0.000299;0.416;350
6390;448;0.0198;0.0047;0.000299;0.419;350
6392;448;0.0198;0.0047;0.000299;0.418;350
6394;447;0.0198;0.0047;0.000299;0.42;350
6396;447;0.0198;0.0047;0.000299;0.421;350
6398;447;0.0198;0.0047;0.000299;0.421;350
6400;447;0.0198;0.0047;0.000299;0.422;350
6402;448;0.0198;0.0047;0.000299;0.421;350
6404;448;0.0198;0.0047;0.000299;0.42;350
6406;448;0.0198;0.0047;0.000299;0.422;350
6408;447;0.0198;0.0047;0.000299;0.42;350
6410;447;0.0198;0.0047;0.000299;0.421;350
6412;447;0.0198;0.0047;0.000299;0.421;350
6414;447;0.0198;0.0047;0.000299;0.422;350
6416;447;0.0198;0.0047;0.000299;0.423;350
6418;447;0.0198;0.0047;0.000299;0.421;350
6420;447;0.0198;0.0047;0.000299;0.424;350
6422;447;0.0198;0.0047;0.000299;0.422;350
6424;447;0.0198;0.0047;0.000299;0.423;350
6426;447;0.0198;0.0047;0.000299;0.425;350
6428;447;0.0198;0.0047;0.000299;0.423;350
6430;447;0.0198;0.0047;0.000299;0.423;350
6432;447;0.0198;0.0047;0.000299;0.423;350
6434;447;0.0198;0.0047;0.000299;0.423;350
6436;447;0.0198;0.0047;0.000299;0.423;350
6438;447;0.0198;0.0047;0.000299;0.421;350
6440;447;0.0198;0.0047;0.000299;0.422;350
6442;447;0.0198;0.0047;0.000299;0.421;350
6444;447;0.0198;0.0047;0.000299;0.42;350
6446;447;0.0198;0.0047;0.000299;0.422;350
6448;447;0.0198;0.0047;0.000299;0.421;350
6450;447;0.0198;0.0047;0.000299;0.423;350
6452;447;0.0198;0.0047;0.000299;0.423;350
6454;447;0.0198;0.0047;0.000299;0.422;350
6456;447;0.0198;0.0047;0.000299;0.425;350
6458;447;0.0198;0.0047;0.000299;0.424;350
6460;447;0.0198;0.0047;0.000299;0.426;350
6462;447;0.0198;0.0047;0.000299;0.425;350
6464;447;0.0198;0.0047;0.000299;0.425;350
6466;447;0.0198;0.0047;0.000299;0.425;350
6468;447;0.0198;0.0047;0.000299;0.423;350
6470;447;0.0198;0.0047;0.000299;0.424;350
6472;447;0.0198;0.0047;0.000299;0.423;350
6474;447;0.0198;0.0047;0.000299;0.423;350
6476;447;0.0198;0.0047;0.000299;0.425;350
6478;447;0.0198;0.0047;0.000299;0.424;350
6480;447;0.0198;0.0047;0.000299;0.425;350
6482;447;0.0198;0.0047;0.000299;0.426;350
6484;447;0.0198;0.0047;0.000299;0.425;350
6486;447;0.0198;0.0047;0.000299;0.427;350
6488;447;0.0198;0.0047;0.000299;0.425;350
6490;447;0.0198;0.0047;0.000299;0.427;350
6492;447;0.0198;0.0047;0.000299;0.426;350
6494;447;0.0198;0.0047;0.000299;0.425;350
6496;447;0.0198;0.0047;0.000299;0.425;350
6498;447;0.0198;0.0047;0.000299;0.424;350
6500;447;0.0198;0.0047;0.000299;0.426;350
6502;447;0.0198;0.0047;0.000299;0.425;350
6504;447;0.0198;0.0047;0.000299;0.425;350
6506;447;0.0198;0.0047;0.000299;0.428;350
6508;447;0.0198;0.0047;0.000299;0.426;350
6510;447;0.0198;0.0047;0.000299;0.428;350
6512;447;0.0198;0.0047;0.000299;0.427;350
6514;447;0.0198;0.0047;0.000299;0.427;350
6516;446;0.0198;0.0047;0.000299;0.428;350
6518;447;0.0198;0.0047;0.000299;0.426;350
6520;447;0.0198;0.0047;0.000299;0.427;350
6522;447;0.0198;0.0047;0.000299;0.426;350
6524;447;0.0198;0.0047;0.000299;0.425;350
6526;446;0.0198;0.0047;0.000299;0.426;350
6528;446;0.0198;0.0047;0.000299;0.425;350
6530;446;0.0198;0.0047;0.000299;0.425;350
6532;446;0.0198;0.0047;0.000299;0.425;350
6534;446;0.0198;0.0047;0.000299;0.425;350
6536;446;0.0198;0.0047;0.000299;0.427;350
6538;446;0.0198;0.0047;0.000299;0.425;350
6540;446;0.0198;0.0047;0.000299;0.426;350
6542;446;0.0198;0.0047;0.000299;0.427;350
6544;446;0.0198;0.0047;0.000299;0.427;350
6546;446;0.0198;0.0047;0.000299;0.428;350
6548;446;0.0198;0.0047;0.000299;0.427;350
6550;446;0.0198;0.0047;0.000299;0.428;350
6552;446;0.0198;0.0047;0.000299;0.426;350
6554;446;0.0198;0.0047;0.000299;0.425;350
6556;446;0.0198;0.0047;0.000299;0.427;350
6558;446;0.0198;0.0047;0.000299;0.426;350
6560;446;0.0198;0.0047;0.000299;0.428;350
6562;446;0.0198;0.0047;0.000299;0.427;350
6564;446;0.0198;0.0047;0.000299;0.426;350
6566;446;0.0198;0.0047;0.000299;0.429;350
6568;446;0.0198;0.0047;0.000299;0.427;350
6570;446;0.0198;0.0047;0.000299;0.428;350
6572;446;0.0198;0.0047;0.000299;0.427;350
6574;446;0.0198;0.0047;0.000299;0.426;350
6576;446;0.0198;0.0047;0.000299;0.426;350
6578;446;0.0198;0.0047;0.000299;0.424;350
6580;446;0.0198;0.0047;0.000299;0.426;350
6582;446;0.0198;0.0047;0.000299;0.424;350
6584;446;0.0198;0.0047;0.000299;0.425;350
6586;446;0.0198;0.0047;0.000299;0.426;350
6588;446;0.0198;0.0047;0.000299;0.425;350
6590;446;0.0198;0.0047;0.000299;0.427;350
6592;446;0.0198;0.0047;0.000299;0.427;350
6594;446;0.0198;0.0047;0.000299;0.426;350
6596;446;0.0198;0.0047;0.000299;0.428;350
6598;446;0.0198;0.0047;0.000299;0.423;350
6600;446;0.0198;0.0047;0.000299;0.424;350
6602;446;0.0198;0.0047;0.000299;0.423;350
6604;446;0.0198;0.0047;0.000299;0.424;350
6606;446;0.0198;0.0047;0.000299;0.425;350
6608;446;0.0198;0.0047;0.000299;0.422;350
6610;446;0.0198;0.0047;0.000299;0.424;350
6612;446;0.0198;0.0047;0.000299;0.422;350
6614;446;0.0198;0.0047;0.000299;0.421;350
6616;446;0.0198;0.0047;0.000299;0.421;350
6618;446;0.0198;0.0047;0.000299;0.419;350
6620;446;0.0198;0.0047;0.000299;0.421;350
6622;446;0.0198;0.0047;0.000299;0.421;350
6624;446;0.0198;0.0047;0.000299;0.423;350
6626;446;0.0198;0.0047;0.000299;0.425;350
6628;446;0.0198;0.0047;0.000299;0.425;350
6630;446;0.0198;0.0047;0.000299;0.427;350
6632;446;0.0198;0.0047;0.000299;0.423;350
6634;446;0.0198;0.0047;0.000299;0.42;350
6636;446;0.0198;0.0047;0.000299;0.423;350
6638;446;0.0198;0.0047;0.000299;0.423;350
6640;446;0.0198;0.0047;0.000299;0.425;350
6642;446;0.0198;0.0047;0.000299;0.425;350
6644;446;0.0198;0.0047;0.000299;0.422;350
6646;446;0.0198;0.0047;0.000299;0.421;350
6648;446;0.0198;0.0047;0.000299;0.419;350
6650;446;0.0198;0.0047;0.000299;0.421;350
6652;446;0.0198;0.0047;0.000299;0.421;350
6654;446;0.0198;0.0047;0.000299;0.421;350
6656;446;0.0198;0.0047;0.000299;0.424;350
6658;446;0.0198;0.0047;0.000299;0.422;350
6660;446;0.0198;0.0047;0.000299;0.423;350
6662;446;0.0198;0.0047;0.000299;0.42;350
6664;446;0.0198;0.0047;0.000299;0.418;350
6666;446;0.0198;0.0047;0.000299;0.421;350
6668;446;0.0198;0.0047;0.000299;0.42;350
6670;446;0.0198;0.0047;0.000299;0.423;350
6672;446;0.0198;0.0047;0.000299;0.423;350
6674;446;0.0198;0.0047;0.000299;0.424;350
6676;446;0.0198;0.0047;0.000299;0.425;350
6678;446;0.0198;0.0047;0.000299;0.423;350
6680;446;0.0198;0.0047;0.000299;0.421;350
6682;446;0.0198;0.0047;0.000299;0.419;350
6684;446;0.0198;0.0047;0.000299;0.419;350
6686;446;0.0198;0.0047;0.000299;0.421;350
6688;446;0.0198;0.0047;0.000299;0.421;350
6690;446;0.0198;0.0047;0.000299;0.423;350
6692;446;0.0198;0.0047;0.000299;0.424;350
6694;446;0.0198;0.0047;0.000299;0.423;350
6696;446;0.0198;0.0047;0.000299;0.422;350
6698;446;0.0198;0.0047;0.000299;0.42;350
6700;446;0.0198;0.0047;0.000299;0.421;350
6702;446;0.0198;0.0047;0.000299;0.422;350
6704;446;0.0198;0.0047;0.000299;0.423;350
6706;446;0.0198;0.0047;0.000299;0.424;350
6708;446;0.0198;0.0047;0.000299;0.424;350
6710;446;0.0198;0.0047;0.000299;0.424;350
6712;446;0.0198;0.0047;0.000299;0.423;350
6714;446;0.0198;0.0047;0.000299;0.423;350
6716;446;0.0198;0.0047;0.000299;0.424;350
6718;446;0.0198;0.0047;0.000299;0.421;350
6720;446;0.0198;0.0047;0.000299;0.423;350
6722;446;0.0198;0.0047;0.000299;0.422;350
6724;446;0.0198;0.0047;0.000299;0.422;350
6726;446;0.0198;0.0047;0.000299;0.424;350
6728;446;0.0198;0.0047;0.000299;0.425;350
6730;447;0.0198;0.0047;0.000299;0.427;350
6732;447;0.0198;0.0047;0.000299;0.426;350
6734;447;0.0198;0.0047;0.000299;0.423;350
6736;447;0.0198;0.0047;0.000299;0.423;350
6738;447;0.0198;0.0047;0.000299;0.422;350
6740;447;0.0198;0.0047;0.000299;0.423;350
6742;447;0.0198;0.0047;0.000299;0.428;350
6744;447;0.0198;0.0047;0.000299;0.427;350
6746;447;0.0198;0.0047;0.000299;0.427;350
6748;447;0.0198;0.0047;0.000299;0.423;350
6750;447;0.0198;0.0047;0.000299;0.424;350
6752;447;0.0198;0.0047;0.000299;0.423;350
6754;447;0.0198;0.0047;0.000299;0.423;350
6756;447;0.0198;0.0047;0.000299;0.424;350
6758;447;0.0198;0.0047;0.000299;0.424;350
6760;447;0.0198;0.0047;0.000299;0.426;350
6762;447;0.0198;0.0047;0.000299;0.426;350
6764;447;0.0198;0.0047;0.000299;0.425;350
6766;447;0.0198;0.0047;0.000299;0.426;350
6768;447;0.0198;0.0047;0.000299;0.424;350
6770;447;0.0198;0.0047;0.000299;0.425;350
6772;447;0.0198;0.0047;0.000299;0.424;350
6774;447;0.0198;0.0047;0.000299;0.423;350
6776;447;0.0198;0.0047;0.000299;0.425;350
6778;447;0.0198;0.0047;0.000299;0.423;350
6780;447;0.0198;0.0047;0.000299;0.425;350
6782;447;0.0198;0.0047;0.000299;0.425;350
6784;447;0.0198;0.0047;0.000299;0.425;350
6786;447;0.0198;0.0047;0.000299;0.427;350
6788;447;0.0198;0.0047;0.000299;0.426;350
6790;447;0.0198;0.0047;0.000299;0.426;350
6792;447;0.0198;0.0047;0.000299;0.422;350
6794;447;0.0198;0.0047;0.000299;0.423;350
6796;447;0.0198;0.0047;0.000299;0.426;350
6798;447;0.0198;0.0047;0.000299;0.425;350
6800;447;0.0198;0.0047;0.000299;0.425;350
6802;447;0.0198;0.0047;0.000299;0.421;350
6804;447;0.0198;0.0047;0.000299;0.423;350
6806;447;0.0198;0.0047;0.000299;0.426;350
6808;447;0.0198;0.0047;0.000299;0.425;350
6810;447;0.0198;0.0047;0.000299;0.425;350
6812;447;0.0198;0.0047;0.000299;0.422;350
6814;447;0.0198;0.0047;0.000299;0.423;350
6816;447;0.0198;0.0047;0.000299;0.425;350
6818;447;0.0198;0.0047;0.000299;0.423;350
6820;447;0.0198;0.0047;0.000299;0.423;350
6822;447;0.0198;0.0047;0.000299;0.423;350
6824;447;0.0198;0.0047;0.000299;0.423;350
6826;447;0.0198;0.0047;0.000299;0.427;350
6828;447;0.0198;0.0047;0.000299;0.427;350
6830;447;0.0198;0.0047;0.000299;0.428;350
6832;447;0.0198;0.0047;0.000299;0.424;350
6834;447;0.0198;0.0047;0.000299;0.423;350
6836;447;0.0198;0.0047;0.000299;0.424;350
6838;447;0.0198;0.0047;0.000299;0.423;350
6840;447;0.0198;0.0047;0.000299;0.425;350
6842;447;0.0198;0.0047;0.000299;0.425;350
6844;447;0.0198;0.0047;0.000299;0.425;350
6846;447;0.0198;0.0047;0.000299;0.426;350
6848;447;0.0198;0.0047;0.000299;0.424;350
6850;447;0.0198;0.0047;0.000299;0.423;350
6852;447;0.0198;0.0047;0.000299;0.423;350
6854;447;0.0198;0.0047;0.000299;0.423;350
6856;447;0.0198;0.0047;0.000299;0.428;350
6858;447;0.0198;0.0047;0.000299;0.427;350
6860;447;0.0198;0.0047;0.000299;0.427;350
6862;447;0.0198;0.0047;0.000299;0.426;350
6864;447;0.0198;0.0047;0.000299;0.422;350
6866;447;0.0198;0.0047;0.000299;0.424;350
6868;447;0.0198;0.0047;0.000299;0.426;350
6870;447;0.0198;0.0047;0.000299;0.427;350
6872;447;0.0198;0.0047;0.000299;0.425;350
6874;447;0.0198;0.0047;0.000299;0.422;350
6876;447;0.0198;0.0047;0.000299;0.426;350
6878;447;0.0198;0.0047;0.000299;0.425;350
6880;447;0.0198;0.0047;0.000299;0.424;350
6882;447;0.0198;0.0047;0.000299;0.424;350
6884;447;0.0198;0.0047;0.000299;0.425;350
6886;447;0.0198;0.0047;0.000299;0.425;350
6888;447;0.0198;0.0047;0.000299;0.422;350
6890;447;0.0198;0.0047;0.000299;0.424;350
6892;447;0.0198;0.0047;0.000299;0.425;350
6894;447;0.0198;0.0047;0.000299;0.426;350
6896;447;0.0198;0.0047;0.000299;0.426;350
6898;447;0.0198;0.0047;0.000299;0.423;350
6900;447;0.0198;0.0047;0.000299;0.424;350
6902;447;0.0198;0.0047;0.000299;0.422;350
6904;447;0.0198;0.0047;0.000299;0.422;350
6906;447;0.0198;0.0047;0.000299;0.424;350
6908;447;0.0198;0.0047;0.000299;0.423;350
6910;447;0.0198;0.0047;0.000299;0.424;350
6912;447;0.0198;0.0047;0.000299;0.424;350
6914;447;0.0198;0.0047;0.000299;0.424;350
6916;447;0.0198;0.0047;0.000299;0.426;350
6918;447;0.0198;0.0047;0.000299;0.424;350
6920;447;0.0198;0.0047;0.000299;0.425;350
6922;447;0.0198;0.0047;0.000299;0.424;350
6924;447;0.0198;0.0047;0.000299;0.423;350
6926;447;0.0198;0.0047;0.000299;0.424;350
6928;447;0.0198;0.0047;0.000299;0.421;350
6930;447;0.0198;0.0047;0.000299;0.421;350
6932;447;0.0198;0.0047;0.000299;0.421;350
6934;447;0.0198;0.0047;0.000299;0.421;350
6936;447;0.0198;0.0047;0.000299;0.424;350
6938;447;0.0198;0.0047;0.000299;0.423;350
6940;447;0.0198;0.0047;0.000299;0.425;350
6942;447;0.0198;0.0047;0.000299;0.425;350
6944;447;0.0198;0.0047;0.000299;0.425;350
6946;447;0.0198;0.0047;0.000299;0.426;350
6948;447;0.0198;0.0047;0.000299;0.425;350
6950;447;0.0198;0.0047;0.000299;0.424;350
6952;447;0.0198;0.0047;0.000299;0.424;350
6954;447;0.0198;0.0047;0.000299;0.422;350
6956;447;0.0198;0.0047;0.000299;0.424;350
6958;447;0.0198;0.0047;0.000299;0.422;350
6960;447;0.0198;0.0047;0.000299;0.423;350
